Instrument type : Porosimeter 2000							
Sample name : C09C2m_2							
Filename : C:\POROSDIR\Pascal_2012\SIMONE_TESI\Combi_Simone\C09c2m_2_comb.Por							
Software version : 1.03B-3							
Date : 21/06/17							
* * * Sample information	* * *						
Company Name : 	FISONS Instruments						
Operator : 	AB						
Date : 	03-15-2017						
Sample name : 	C09C2m_2						
Preparation : 	secco all'aria						
Sample mass (g) : 	.902						
Sample density (g) : 	1.3						
Mercury height (mm) : 	61.953						
Vol. at run (mm3) : 	240						
Weight dilatometer+mercury+sample (g) : 	239.4						
Weight dil.+mercury+sample correct(g) : 	0						
Capillary mercury height (mm) : 	33.953						
Bulk D.calc. at 250 (kPa)-->Vol.(mm3): 	30.1984						
							
* * * Acquisition parameters	* * *						
Max pressure : 	2000						
Pump speed increase : 	1						
Pump speed decrease : 	1						
Pump speed inc. compensation : 	Pascal						
Pump speed dec. compensation : 	Pascal						
Dilatometer number : 	1						
Dilatometer type : 	Normal						
							
* * * Calculation parameters	* * *						
Conctact angle (Deg) : 	141.3						
Hg surface tension (Dyne/cm) : 	480						
Hg density (g/cm3) : 	13.5438						
Temperature Hg (°C): 	21						
Pores model : 	Cylindrical						
Sample volume correction : 	Yes						
Region start : 	0						
Region stop : 	1000						
Region number of intervals : 	50						
Pores average mode : 	Range						
Particle size distribution : 	Yes						
Kp factor : 	11.7003						
Cut off radius : 	0-0						
							
* * * Blank parameters	* * *						
Blank data file path : 	C:\POROSDIR\Pascal_2012\SIMONE_TESI\Poros_2000\Dil6new.por						
Blank name instrument : 	Porosimeter 2000						
Num. of blank data points increase : 	216						
Num. of blank data points decrease : 	163						
Filling volume (mm3) : 	447 (from blank file)						
Weight dilatometer (g) : 	44.185 (from blank file)						
Weight dilatometer+Hg (g) : 	244.85 (from blank file)						
Capillary radius (mm) : 	1.5 (from blank file)						
Dilatometer cone height (mm) : 	28 (from blank file)						
Hg density blank (g/cm3) : 	13.5438 (from blank file)						
Temperature Hg (°C): 	21						
							
							
R E S U L T S							
Total cumulative volume (mm3/g) : 	190.5765076						
Total specific surface area (m²/g) : 	4.586999893						
Average pore radius (Micron) : 	0.6358349919						
Total  porosity (%) : 	36.65259933						
Bulk density  (g/cm3) : 	1.92324996						
Bulk density (g/cm3) at 250 (kPa) : 	2.055609941						
Apparent density (g/cm3) : 	3.036040068						
Sample volume correction : 	0.9683452249						
							
P O R E   S I Z E   D I S T R I B U T I O N (custom ranges)							
Pore radius ranges	Specific Volume	Relative Volume	Relative Volume				
(µM)	(mm3/g)	(mm3/g)	(%)				
10000-1000	0.000	0.000	0.000				
1000-100	0.000	0.000	0.000				
100-10	23.060	23.060	12.100				
10-1	54.990	31.930	16.750				
1-.1	150.780	95.790	50.260				
.1-.01	185.370	34.590	18.150				
.01-.001	190.580	5.210	2.730				
							
P A R T I C L E   S I Z E   D I S T R I B U T I O N							
Particle diameter range	Cum. Distr. Vol.	Rel. Distr. Vol.	Cumulative Area				
(µM)	(%)	(%)	(m²/g)				
200-150	1.350	1.350	0.000				
150-90	3.400	2.050	0.001				
90-64	4.800	1.410	0.002				
64-45	6.620	1.810	0.004				
45-32	8.080	1.460	0.005				
32-23	8.370	0.290	0.006				
23-16	13.230	4.860	0.018				
16-14	15.460	2.220	0.024				
14-12	18.790	3.340	0.036				
12-10	23.130	4.330	0.054				
10-8	29.390	6.260	0.086				
8-6	37.650	8.260	0.140				
6-4	47.540	9.890	0.231				
4-2	62.060	14.520	0.459				
2-1	71.600	9.540	0.760				
1-0	90.750	19.150	4.586				
							
D A T A   R E P O R T							
Pressure	Volume	Radius	Spec.Vol.	Rel.Vol.			
(MPa)	(mm3)	(µm)	(mm3/g)	(mm3/g)			
0.009	1.100	88.201	1.220	1.220			
0.009	1.200	87.194	1.330	0.110			
0.009	1.500	84.307	1.660	0.330			
0.009	1.600	83.387	1.770	0.110			
0.009	1.700	81.588	1.880	0.110			
0.009	1.900	79.882	2.110	0.220			
0.010	2.100	78.245	2.330	0.220			
0.010	2.300	77.467	2.550	0.220			
0.010	2.400	75.913	2.660	0.110			
0.010	2.500	75.166	2.770	0.110			
0.010	2.800	73.010	3.100	0.330			
0.010	2.900	72.319	3.220	0.110			
0.010	3.000	71.641	3.330	0.110			
0.011	3.200	70.988	3.550	0.220			
0.011	3.400	70.347	3.770	0.220			
0.011	3.500	69.063	3.880	0.110			
0.011	3.600	68.444	3.990	0.110			
0.011	3.800	67.848	4.210	0.220			
0.011	3.900	67.251	4.320	0.110			
0.011	4.000	66.076	4.430	0.110			
0.012	4.100	64.942	4.550	0.110			
0.012	4.200	64.394	4.660	0.110			
0.012	4.300	63.316	4.770	0.110			
0.012	4.500	62.806	4.990	0.220			
0.012	4.600	62.294	5.100	0.110			
0.012	4.700	60.787	5.210	0.110			
0.013	4.900	59.835	5.430	0.220			
0.013	5.000	59.370	5.540	0.110			
0.013	5.100	58.912	5.650	0.110			
0.013	5.300	58.470	5.880	0.220			
0.013	5.400	58.026	5.990	0.110			
0.013	5.500	57.149	6.100	0.110			
0.013	5.600	56.725	6.210	0.110			
0.013	5.800	56.315	6.430	0.220			
0.014	5.900	55.489	6.540	0.110			
0.014	6.100	55.096	6.760	0.220			
0.014	6.200	54.702	6.870	0.110			
0.014	6.400	53.929	7.100	0.220			
0.014	6.600	53.178	7.320	0.220			
0.014	6.700	52.077	7.430	0.110			
0.015	6.900	51.026	7.650	0.220			
0.015	7.000	50.688	7.760	0.110			
0.015	7.100	50.354	7.870	0.110			
0.015	7.200	50.024	7.980	0.110			
0.015	7.300	49.698	8.090	0.110			
0.015	7.400	49.054	8.200	0.110			
0.015	7.500	48.741	8.310	0.110			
0.015	7.600	48.432	8.430	0.110			
0.016	7.700	47.820	8.540	0.110			
0.016	7.800	47.522	8.650	0.110			
0.016	7.900	47.228	8.760	0.110			
0.016	8.000	46.938	8.870	0.110			
0.016	8.100	46.651	8.980	0.110			
0.016	8.200	46.368	9.090	0.110			
0.016	8.300	45.807	9.200	0.110			
0.017	8.400	45.259	9.310	0.110			
0.017	8.500	44.723	9.420	0.110			
0.017	8.600	44.463	9.530	0.110			
0.017	8.700	44.206	9.650	0.110			
0.017	8.800	43.951	9.760	0.110			
0.017	8.900	43.700	9.870	0.110			
0.017	9.000	43.201	9.980	0.110			
0.017	9.100	42.958	10.090	0.110			
0.018	9.200	42.718	10.200	0.110			
0.018	9.300	42.480	10.310	0.110			
0.018	9.400	42.008	10.420	0.110			
0.018	9.500	41.091	10.530	0.110			
0.018	9.700	40.876	10.750	0.220			
0.019	9.800	40.007	10.860	0.110			
0.019	9.900	39.588	10.980	0.110			
0.019	10.000	39.384	11.090	0.110			
0.019	10.100	38.978	11.200	0.110			
0.019	10.200	38.581	11.310	0.110			
0.020	10.300	37.806	11.420	0.110			
0.020	10.500	37.435	11.640	0.220			
0.020	10.700	36.889	11.860	0.220			
0.021	10.800	36.533	11.970	0.110			
0.021	10.900	36.183	12.080	0.110			
0.021	11.000	35.501	12.200	0.110			
0.021	11.100	35.171	12.310	0.110			
0.022	11.200	34.685	12.420	0.110			
0.022	11.300	34.529	12.530	0.110			
0.022	11.400	34.216	12.640	0.110			
0.022	11.500	33.910	12.750	0.110			
0.022	11.600	33.608	12.860	0.110			
0.022	11.700	33.461	12.970	0.110			
0.023	11.800	33.168	13.080	0.110			
0.023	11.900	32.879	13.190	0.110			
0.023	12.000	32.596	13.300	0.110			
0.023	12.100	32.179	13.410	0.110			
0.023	12.200	32.044	13.530	0.110			
0.024	12.300	31.375	13.640	0.110			
0.024	12.400	30.988	13.750	0.110			
0.024	12.500	30.863	13.860	0.110			
0.024	12.600	30.613	13.970	0.110			
0.025	12.700	30.368	14.080	0.110			
0.025	12.900	30.007	14.300	0.220			
0.025	13.000	29.653	14.410	0.110			
0.025	13.100	29.423	14.520	0.110			
0.026	13.200	28.638	14.630	0.110			
0.026	13.300	28.315	14.750	0.110			
0.027	13.400	28.000	14.860	0.110			
0.027	13.500	27.488	14.970	0.110			
0.028	13.600	26.706	15.080	0.110			
0.028	13.900	26.429	15.410	0.330			
0.029	14.000	25.794	15.520	0.110			
0.029	14.100	25.445	15.630	0.110			
0.030	14.200	25.106	15.740	0.110			
0.030	14.300	25.023	15.850	0.110			
0.030	14.400	24.859	15.960	0.110			
0.031	14.500	24.218	16.080	0.110			
0.031	14.600	23.910	16.190	0.110			
0.032	14.700	23.685	16.300	0.110			
0.032	14.800	23.464	16.410	0.110			
0.032	14.900	23.175	16.520	0.110			
0.033	15.000	22.754	16.630	0.110			
0.033	15.100	22.550	16.740	0.110			
0.034	15.200	22.283	16.850	0.110			
0.034	15.300	22.022	16.960	0.110			
0.035	15.400	21.579	17.070	0.110			
0.035	15.500	21.274	17.180	0.110			
0.036	15.600	20.977	17.290	0.110			
0.036	15.700	20.689	17.410	0.110			
0.036	15.800	20.520	17.520	0.110			
0.037	16.000	20.082	17.740	0.220			
0.039	16.100	19.407	17.850	0.110			
0.039	16.200	19.062	17.960	0.110			
0.040	16.300	18.823	18.070	0.110			
0.040	16.400	18.684	18.180	0.110			
0.041	16.500	18.409	18.290	0.110			
0.042	16.600	17.713	18.400	0.110			
0.043	16.700	17.466	18.510	0.110			
0.043	16.800	17.306	18.630	0.110			
0.044	16.900	17.070	18.740	0.110			
0.045	17.000	16.803	18.850	0.110			
0.045	17.100	16.728	18.960	0.110			
0.045	17.200	16.544	19.070	0.110			
0.047	17.300	16.049	19.180	0.110			
0.047	17.400	15.880	19.290	0.110			
0.048	17.500	15.648	19.400	0.110			
0.049	17.600	15.455	19.510	0.110			
0.050	17.700	15.082	19.620	0.110			
0.050	17.800	14.962	19.730	0.110			
0.050	18.000	14.934	19.960	0.220			
0.050	18.100	14.905	20.070	0.110			
0.051	18.200	14.700	20.180	0.110			
0.052	18.300	14.308	20.290	0.110			
0.053	18.400	14.146	20.400	0.110			
0.054	18.500	13.962	20.510	0.110			
0.054	18.600	13.783	20.620	0.110			
0.055	18.700	13.733	20.730	0.110			
0.055	18.800	13.609	20.840	0.110			
0.056	18.900	13.390	20.950	0.110			
0.057	19.000	13.179	21.060	0.110			
0.058	19.100	12.929	21.180	0.110			
0.058	19.200	12.797	21.290	0.110			
0.059	19.300	12.625	21.400	0.110			
0.060	19.400	12.437	21.510	0.110			
0.061	19.500	12.274	21.620	0.110			
0.063	19.600	11.923	21.730	0.110			
0.063	19.700	11.829	21.840	0.110			
0.064	19.800	11.664	21.950	0.110			
0.065	19.900	11.574	22.060	0.110			
0.065	20.000	11.468	22.170	0.110			
0.067	20.100	11.161	22.280	0.110			
0.067	20.200	11.111	22.390	0.110			
0.068	20.300	10.965	22.510	0.110			
0.071	20.500	10.519	22.730	0.220			
0.072	20.600	10.374	22.840	0.110			
0.073	20.700	10.205	22.950	0.110			
0.075	20.800	10.041	23.060	0.110			
0.076	20.900	9.869	23.170	0.110			
0.078	21.000	9.592	23.280	0.110			
0.079	21.100	9.471	23.390	0.110			
0.080	21.200	9.341	23.500	0.110			
0.081	21.300	9.260	23.610	0.110			
0.082	21.500	9.148	23.840	0.220			
0.083	21.600	8.973	23.950	0.110			
0.084	21.700	8.867	24.060	0.110			
0.086	21.800	8.763	24.170	0.110			
0.086	21.900	8.662	24.280	0.110			
0.089	22.000	8.381	24.390	0.110			
0.091	22.100	8.261	24.500	0.110			
0.092	22.200	8.145	24.610	0.110			
0.093	22.300	8.075	24.720	0.110			
0.094	22.400	8.014	24.830	0.110			
0.095	22.500	7.880	24.940	0.110			
0.097	22.600	7.709	25.060	0.110			
0.098	22.700	7.623	25.170	0.110			
0.100	22.800	7.532	25.280	0.110			
0.101	22.900	7.427	25.390	0.110			
0.103	23.000	7.304	25.500	0.110			
0.105	23.100	7.124	25.610	0.110			
0.106	23.200	7.057	25.720	0.110			
0.107	23.300	6.998	25.830	0.110			
0.107	23.400	6.978	25.940	0.110			
0.110	23.500	6.789	26.050	0.110			
0.112	23.600	6.686	26.160	0.110			
0.113	23.700	6.638	26.270	0.110			
0.114	23.800	6.586	26.390	0.110			
0.115	23.900	6.495	26.500	0.110			
0.119	23.900	6.309	26.500	0.000			
0.120	24.000	6.225	26.610	0.110			
0.122	24.100	6.139	26.720	0.110			
0.122	24.200	6.134	26.830	0.110			
0.122	24.300	6.129	26.940	0.110			
0.124	24.400	6.055	27.050	0.110			
0.125	24.500	5.977	27.160	0.110			
0.127	24.600	5.874	27.270	0.110			
0.129	24.700	5.820	27.380	0.110			
0.132	24.800	5.674	27.490	0.110			
0.134	24.900	5.586	27.610	0.110			
0.135	25.000	5.528	27.720	0.110			
0.138	25.100	5.448	27.830	0.110			
0.140	25.200	5.366	27.940	0.110			
0.141	25.300	5.316	28.050	0.110			
0.141	25.400	5.313	28.160	0.110			
0.141	25.500	5.301	28.270	0.110			
0.142	25.600	5.257	28.380	0.110			
0.143	25.700	5.242	28.490	0.110			
0.144	25.800	5.191	28.600	0.110			
0.145	25.900	5.163	28.710	0.110			
0.149	26.000	5.031	28.820	0.110			
0.151	26.100	4.965	28.940	0.110			
0.153	26.200	4.884	29.050	0.110			
0.154	26.300	4.849	29.160	0.110			
0.157	26.400	4.778	29.270	0.110			
0.158	26.500	4.733	29.380	0.110			
0.161	26.600	4.656	29.490	0.110			
0.163	26.700	4.605	29.600	0.110			
0.164	26.800	4.560	29.710	0.110			
0.168	26.900	4.457	29.820	0.110			
0.171	27.000	4.384	29.930	0.110			
0.173	27.100	4.323	30.040	0.110			
0.175	27.200	4.279	30.160	0.110			
0.178	27.300	4.219	30.270	0.110			
0.181	27.500	4.149	30.490	0.220			
0.181	27.600	4.137	30.600	0.110			
0.184	27.700	4.063	30.710	0.110			
0.187	27.800	3.998	30.820	0.110			
0.190	27.900	3.944	30.930	0.110			
0.191	28.000	3.931	31.040	0.110			
0.192	28.100	3.909	31.150	0.110			
0.197	28.200	3.798	31.260	0.110			
0.199	28.300	3.756	31.370	0.110			
0.202	28.400	3.715	31.490	0.110			
0.204	28.500	3.682	31.600	0.110			
0.207	28.600	3.627	31.710	0.110			
0.209	28.700	3.589	31.820	0.110			
0.211	28.800	3.551	31.930	0.110			
0.213	28.800	3.515	31.930	0.000			
0.218	28.900	3.444	32.040	0.110			
0.221	29.000	3.392	32.150	0.110			
0.223	29.100	3.359	32.260	0.110			
0.225	29.200	3.332	32.370	0.110			
0.229	29.300	3.270	32.480	0.110			
0.232	29.400	3.232	32.590	0.110			
0.233	29.500	3.222	32.710	0.110			
0.235	29.600	3.185	32.820	0.110			
0.237	29.700	3.161	32.930	0.110			
0.239	29.800	3.133	33.040	0.110			
0.242	29.900	3.094	33.150	0.110			
0.247	30.000	3.038	33.260	0.110			
0.248	30.100	3.019	33.370	0.110			
0.250	30.200	2.996	33.480	0.110			
0.253	30.300	2.964	33.590	0.110			
0.255	30.400	2.933	33.700	0.110			
0.258	30.500	2.901	33.810	0.110			
0.278	30.700	2.692	34.040	0.220			
0.338	30.800	2.214	34.150	0.110			
0.378	31.000	1.980	34.370	0.220			
0.398	31.200	1.881	34.590	0.220			
0.408	31.600	1.835	35.030	0.440			
0.418	31.800	1.791	35.250	0.220			
0.428	32.600	1.749	36.140	0.890			
0.438	33.400	1.709	37.030	0.890			
0.448	33.600	1.671	37.250	0.220			
0.458	34.000	1.635	37.690	0.440			
0.468	34.800	1.600	38.580	0.890			
0.478	35.400	1.567	39.250	0.670			
0.488	36.000	1.535	39.910	0.670			
0.498	36.300	1.504	40.240	0.330			
0.508	36.700	1.474	40.690	0.440			
0.518	37.500	1.446	41.570	0.890			
0.528	37.700	1.418	41.800	0.220			
0.538	38.100	1.392	42.240	0.440			
0.558	39.500	1.342	43.790	1.550			
0.568	39.700	1.319	44.010	0.220			
0.578	40.700	1.296	45.120	1.110			
0.588	41.100	1.274	45.570	0.440			
0.598	41.900	1.253	46.450	0.890			
0.608	42.100	1.232	46.670	0.220			
0.618	42.700	1.212	47.340	0.670			
0.628	43.300	1.193	48.000	0.670			
0.638	44.100	1.174	48.890	0.890			
0.658	44.700	1.138	49.560	0.670			
0.668	45.500	1.121	50.440	0.890			
0.678	45.900	1.105	50.890	0.440			
0.698	46.800	1.073	51.880	1.000			
0.718	47.800	1.043	52.990	1.110			
0.728	48.000	1.029	53.220	0.220			
0.738	49.000	1.015	54.320	1.110			
0.748	49.600	1.002	54.990	0.670			
0.768	49.800	0.976	55.210	0.220			
0.778	50.800	0.963	56.320	1.110			
0.788	52.000	0.951	57.650	1.330			
0.798	52.400	0.939	58.090	0.440			
0.818	53.200	0.916	58.980	0.890			
0.828	53.600	0.905	59.420	0.440			
0.838	54.000	0.894	59.870	0.440			
0.848	54.800	0.884	60.750	0.890			
0.868	55.800	0.863	61.860	1.110			
0.878	56.400	0.853	62.530	0.670			
0.888	57.400	0.844	63.640	1.110			
0.908	58.000	0.825	64.300	0.670			
0.938	59.000	0.799	65.410	1.110			
0.948	59.600	0.790	66.080	0.670			
0.958	59.800	0.782	66.300	0.220			
0.978	61.600	0.766	68.290	2.000			
0.988	62.000	0.759	68.740	0.440			
0.998	62.100	0.751	68.850	0.110			
1.008	63.100	0.743	69.960	1.110			
1.018	63.300	0.736	70.180	0.220			
1.048	64.300	0.715	71.290	1.110			
1.058	65.100	0.708	72.170	0.890			
1.078	65.700	0.695	72.840	0.670			
1.088	65.900	0.689	73.060	0.220			
1.098	67.100	0.683	74.390	1.330			
1.108	67.900	0.676	75.280	0.890			
1.138	68.300	0.659	75.720	0.440			
1.148	68.500	0.653	75.940	0.220			
1.178	69.900	0.636	77.490	1.550			
1.188	70.900	0.631	78.600	1.110			
1.208	71.100	0.620	78.820	0.220			
1.218	71.300	0.615	79.050	0.220			
1.228	71.900	0.610	79.710	0.670			
1.238	72.700	0.605	80.600	0.890			
1.268	73.300	0.591	81.260	0.670			
1.278	73.700	0.586	81.710	0.440			
1.288	74.100	0.582	82.150	0.440			
1.297	75.100	0.577	83.260	1.110			
1.337	76.000	0.560	84.260	1.000			
1.347	76.400	0.556	84.700	0.440			
1.387	77.600	0.540	86.030	1.330			
1.397	77.800	0.536	86.250	0.220			
1.427	79.400	0.525	88.030	1.770			
1.457	80.200	0.514	88.910	0.890			
1.497	81.200	0.500	90.020	1.110			
1.517	81.600	0.494	90.470	0.440			
1.527	82.000	0.491	90.910	0.440			
1.537	82.200	0.487	91.130	0.220			
1.547	83.200	0.484	92.240	1.110			
1.567	84.200	0.478	93.350	1.110			
1.607	84.600	0.466	93.790	0.440			
1.637	85.800	0.458	95.120	1.330			
1.667	86.000	0.449	95.340	0.220			
1.677	86.200	0.447	95.570	0.220			
1.687	86.400	0.444	95.790	0.220			
1.697	87.400	0.441	96.900	1.110			
1.717	88.000	0.436	97.560	0.670			
1.767	88.800	0.424	98.450	0.890			
1.777	89.000	0.422	98.670	0.220			
1.797	89.900	0.417	99.670	1.000			
1.837	90.700	0.408	100.550	0.890			
1.857	91.100	0.403	101.000	0.440			
1.887	91.500	0.397	101.440	0.440			
1.927	92.700	0.389	102.770	1.330			
1.977	93.700	0.379	103.880	1.110			
2.007	94.500	0.373	104.770	0.890			
2.057	95.100	0.364	105.430	0.670			
2.067	95.500	0.362	105.880	0.440			
2.087	96.300	0.359	106.760	0.890			
2.107	97.100	0.356	107.650	0.890			
2.167	97.500	0.346	108.090	0.440			
2.177	97.700	0.344	108.310	0.220			
2.187	97.900	0.343	108.540	0.220			
2.197	98.100	0.341	108.760	0.220			
2.237	99.100	0.335	109.870	1.110			
2.277	100.000	0.329	110.860	1.000			
2.337	100.400	0.321	111.310	0.440			
2.367	101.200	0.317	112.200	0.890			
2.387	101.400	0.314	112.420	0.220			
2.397	102.200	0.313	113.300	0.890			
2.447	103.000	0.306	114.190	0.890			
2.487	103.400	0.301	114.630	0.440			
2.557	104.400	0.293	115.740	1.110			
2.597	104.600	0.289	115.960	0.220			
2.607	105.000	0.287	116.410	0.440			
2.627	105.200	0.285	116.630	0.220			
2.637	105.400	0.284	116.850	0.220			
2.657	106.000	0.282	117.520	0.670			
2.677	106.400	0.280	117.960	0.440			
2.737	107.200	0.274	118.850	0.890			
2.777	107.800	0.270	119.510	0.670			
2.837	108.200	0.264	119.960	0.440			
2.857	108.600	0.262	120.400	0.440			
2.897	109.000	0.259	120.840	0.440			
2.907	109.200	0.258	121.060	0.220			
2.947	110.000	0.254	121.950	0.890			
2.977	110.100	0.252	122.060	0.110			
3.047	110.900	0.246	122.950	0.890			
3.077	111.300	0.244	123.390	0.440			
3.147	111.900	0.238	124.060	0.670			
3.157	112.100	0.237	124.280	0.220			
3.167	112.300	0.237	124.500	0.220			
3.197	112.900	0.234	125.170	0.670			
3.227	113.500	0.232	125.830	0.670			
3.297	114.100	0.227	126.500	0.670			
3.337	114.500	0.225	126.940	0.440			
3.397	114.900	0.221	127.380	0.440			
3.417	115.100	0.219	127.610	0.220			
3.447	115.700	0.217	128.270	0.670			
3.527	116.300	0.212	128.940	0.670			
3.557	116.500	0.211	129.160	0.220			
3.637	117.100	0.206	129.820	0.670			
3.657	117.200	0.205	129.930	0.110			
3.677	117.400	0.204	130.160	0.220			
3.687	117.800	0.203	130.600	0.440			
3.747	118.200	0.200	131.040	0.440			
3.797	118.600	0.197	131.490	0.440			
3.877	119.200	0.193	132.150	0.670			
3.917	119.400	0.191	132.370	0.220			
3.937	119.600	0.190	132.590	0.220			
3.957	119.800	0.189	132.820	0.220			
3.967	120.200	0.189	133.260	0.440			
4.027	120.400	0.186	133.480	0.220			
4.077	121.000	0.184	134.150	0.670			
4.137	121.200	0.181	134.370	0.220			
4.157	121.600	0.180	134.810	0.440			
4.187	122.000	0.179	135.250	0.440			
4.267	122.200	0.176	135.480	0.220			
4.317	122.800	0.174	136.140	0.670			
4.407	122.900	0.170	136.250	0.110			
4.427	123.100	0.169	136.470	0.220			
4.447	123.500	0.168	136.920	0.440			
4.527	123.700	0.166	137.140	0.220			
4.557	124.100	0.164	137.580	0.440			
4.657	124.500	0.161	138.030	0.440			
4.677	124.700	0.160	138.250	0.220			
4.727	124.900	0.159	138.470	0.220			
4.757	125.100	0.158	138.690	0.220			
4.817	125.700	0.156	139.360	0.670			
4.856	125.900	0.154	139.580	0.220			
4.946	126.300	0.151	140.020	0.440			
4.976	126.500	0.151	140.240	0.220			
5.056	126.600	0.148	140.350	0.110			
5.076	126.800	0.148	140.580	0.220			
5.106	127.000	0.147	140.800	0.220			
5.136	127.200	0.146	141.020	0.220			
5.216	127.600	0.144	141.460	0.440			
5.256	127.800	0.143	141.690	0.220			
5.346	128.200	0.140	142.130	0.440			
5.406	128.400	0.139	142.350	0.220			
5.416	128.600	0.138	142.570	0.220			
5.446	128.800	0.138	142.790	0.220			
5.526	129.000	0.136	143.020	0.220			
5.566	129.200	0.135	143.240	0.220			
5.656	129.600	0.132	143.680	0.440			
