Instrument type : Porosimeter 2000							
Sample name : C010B2m							
Filename : C:\POROSDIR\Pascal_2012\SIMONE_TESI\Combi_Simone\C010b2m_comb.Por							
Software version : 1.03B-3							
Date : 21/06/17							
* * * Sample information	* * *						
Company Name : 	Fisons Instruments SpA						
Operator : 	AB						
Date : 	13/03/2017						
Sample name : 	C010B2m						
Preparation : 	secco all'aria						
Sample mass (g) : 	1.103						
Sample density (g) : 	1.3						
Mercury height (mm) : 	63.651						
Vol. at run (mm3) : 	252						
Weight dilatometer+mercury+sample (g) : 	238.71						
Weight dil.+mercury+sample correct(g) : 	0						
Capillary mercury height (mm) : 	35.651						
Bulk D.calc. at 250 (kPa)-->Vol.(mm3): 	47.0087						
							
* * * Acquisition parameters	* * *						
Max pressure : 	2000						
Pump speed increase : 	2						
Pump speed decrease : 	1						
Pump speed inc. compensation : 	Pascal						
Pump speed dec. compensation : 	Pascal						
Dilatometer number : 	1						
Dilatometer type : 	Normal						
							
* * * Calculation parameters	* * *						
Conctact angle (Deg) : 	141.3						
Hg surface tension (Dyne/cm) : 	480						
Hg density (g/cm3) : 	13.5438						
Temperature Hg (°C): 	21						
Pores model : 	Cylindrical						
Sample volume correction : 	Yes						
Region start : 	0						
Region stop : 	10000000						
Region number of intervals : 	50						
Pores average mode : 	Range						
Particle size distribution : 	No						
Kp factor : 	11.7003						
Cut off radius : 	.001-10						
							
* * * Blank parameters	* * *						
Blank data file path : 	C:\POROSDIR\Pascal_2012\SIMONE_TESI\Poros_2000\Dil1new.por						
Blank name instrument : 	Porosimeter 2000						
Num. of blank data points increase : 	199						
Num. of blank data points decrease : 	157						
Filling volume (mm3) : 	458 (from blank file)						
Weight dilatometer (g) : 	42.215 (from blank file)						
Weight dilatometer+Hg (g) : 	245.15 (from blank file)						
Capillary radius (mm) : 	1.5 (from blank file)						
Dilatometer cone height (mm) : 	28 (from blank file)						
Hg density blank (g/cm3) : 	13.5438 (from blank file)						
Temperature Hg (°C): 	21						
							
							
R E S U L T S							
Total cumulative volume (mm3/g) : 	191.7498016						
Total specific surface area (m²/g) : 	5.923999786						
Average pore radius (Micron) : 	0.2264869958						
Total  porosity (%) : 	37.97589874						
Bulk density  (g/cm3) : 	1.980489969						
Bulk density (g/cm3) at 250 (kPa) : 	2.163069963						
Apparent density (g/cm3) : 	3.193099976						
Cut-Off radius range (Micron) :  : -------	.001-10						
Total pore volume (mm3/g) : 	0						
Pore specific surface area (m²/g) : 	0						
Cumulative volume [Cut-Off] (mm3/g) : 	191.7498016						
Surface area [Cut-Off] (m²/g) : 	5.923999786						
Sample volume correction : 	0.9628304839						
							
P O R E   S I Z E   D I S T R I B U T I O N (custom ranges)							
Pore radius ranges	Specific Volume	Relative Volume	Relative Volume	Specific Surface	Relative Surface		
(µM)	(mm3/g)	(mm3/g)	(%)	(m²/g)	(m²/g)		
10000-1000	0.000	0.000	0.000	0.000	0.000		
1000-100	0.000	0.000	0.000	0.000	0.000		
100-10	31.190	31.190	16.260	0.002	0.002		
10-1	64.010	32.820	17.120	0.035	0.032		
1-.1	146.780	82.770	43.170	0.675	0.640		
.1-.01	182.860	36.080	18.820	2.949	2.274		
.01-.001	191.750	8.880	4.630	5.924	2.976		
							
D A T A   R E P O R T							
Pressure	Volume	Radius	Spec.Vol.	Rel.Vol.			
(MPa)	(mm3)	(µm)	(mm3/g)	(mm3/g)			
0.009	0.200	82.855	0.180	0.180			
0.009	0.300	81.079	0.270	0.090			
0.009	0.500	79.394	0.450	0.180			
0.010	0.600	77.761	0.540	0.090			
0.010	0.700	76.195	0.630	0.090			
0.010	0.900	74.705	0.820	0.180			
0.010	1.200	74.009	1.090	0.270			
0.010	1.300	73.299	1.180	0.090			
0.010	1.400	72.602	1.270	0.090			
0.010	1.500	71.919	1.360	0.090			
0.010	1.600	71.248	1.450	0.090			
0.011	1.700	70.590	1.540	0.090			
0.011	1.900	69.309	1.720	0.180			
0.011	2.000	68.686	1.810	0.090			
0.011	2.200	68.085	1.990	0.180			
0.011	2.400	66.893	2.180	0.180			
0.011	2.500	66.312	2.270	0.090			
0.012	2.600	65.170	2.360	0.090			
0.012	2.700	64.618	2.450	0.090			
0.012	2.800	64.076	2.540	0.090			
0.012	2.900	63.543	2.630	0.090			
0.012	3.000	62.494	2.720	0.090			
0.012	3.100	61.478	2.810	0.090			
0.012	3.300	60.997	2.990	0.180			
0.012	3.400	60.513	3.080	0.090			
0.013	3.500	60.038	3.170	0.090			
0.013	3.600	59.100	3.260	0.090			
0.013	3.900	58.208	3.540	0.270			
0.013	4.300	57.793	3.900	0.360			
0.013	4.400	56.494	3.990	0.090			
0.014	4.700	55.679	4.260	0.270			
0.014	5.000	55.292	4.530	0.270			
0.014	5.400	54.918	4.900	0.360			
0.014	5.700	54.541	5.170	0.270			
0.014	5.800	54.154	5.260	0.090			
0.014	5.900	53.390	5.350	0.090			
0.014	6.300	53.041	5.710	0.360			
0.014	6.400	52.675	5.800	0.090			
0.014	6.500	51.952	5.890	0.090			
0.014	6.700	51.608	6.070	0.180			
0.015	6.900	50.920	6.260	0.180			
0.015	7.000	50.243	6.350	0.090			
0.015	7.100	49.915	6.440	0.090			
0.015	7.200	49.265	6.530	0.090			
0.015	7.300	48.949	6.620	0.090			
0.015	7.500	48.330	6.800	0.180			
0.016	7.800	48.038	7.070	0.270			
0.016	7.900	47.738	7.160	0.090			
0.016	8.500	47.470	7.710	0.540			
0.016	8.600	47.177	7.800	0.090			
0.016	8.700	46.308	7.890	0.090			
0.016	8.800	45.748	7.980	0.090			
0.017	8.900	45.201	8.070	0.090			
0.017	9.100	44.940	8.250	0.180			
0.017	9.200	44.677	8.340	0.090			
0.017	9.300	44.418	8.430	0.090			
0.017	9.600	43.912	8.700	0.270			
0.017	9.700	43.661	8.790	0.090			
0.017	9.800	43.413	8.880	0.090			
0.018	9.900	42.920	8.980	0.090			
0.018	10.100	42.443	9.160	0.180			
0.018	10.400	41.981	9.430	0.270			
0.018	10.500	41.752	9.520	0.090			
0.018	10.700	41.300	9.700	0.180			
0.018	10.900	40.859	9.880	0.180			
0.019	11.000	40.422	9.970	0.090			
0.019	11.100	40.209	10.060	0.090			
0.019	11.200	39.999	10.150	0.090			
0.019	11.600	39.592	10.520	0.360			
0.019	11.700	39.388	10.610	0.090			
0.019	11.900	39.190	10.790	0.180			
0.019	12.400	39.005	11.240	0.450			
0.019	12.600	38.811	11.420	0.180			
0.019	12.800	38.619	11.600	0.180			
0.020	13.000	38.428	11.790	0.180			
0.020	13.100	38.042	11.880	0.090			
0.020	13.200	37.663	11.970	0.090			
0.020	13.300	37.292	12.060	0.090			
0.020	13.400	36.928	12.150	0.090			
0.021	13.500	36.217	12.240	0.090			
0.021	13.600	36.046	12.330	0.090			
0.021	13.700	35.877	12.420	0.090			
0.021	13.800	35.709	12.510	0.090			
0.021	13.900	35.375	12.600	0.090			
0.021	14.100	35.215	12.780	0.180			
0.022	14.200	34.890	12.870	0.090			
0.022	14.300	34.572	12.960	0.090			
0.022	14.500	34.261	13.150	0.180			
0.022	14.600	34.108	13.240	0.090			
0.022	14.700	33.957	13.330	0.090			
0.022	14.900	33.658	13.510	0.180			
0.022	15.000	33.510	13.600	0.090			
0.023	15.200	33.219	13.780	0.180			
0.023	15.300	32.929	13.870	0.090			
0.023	15.500	32.791	14.050	0.180			
0.023	15.600	32.651	14.140	0.090			
0.023	15.700	32.371	14.230	0.090			
0.023	15.900	32.237	14.420	0.180			
0.023	16.000	31.965	14.510	0.090			
0.023	16.200	31.834	14.690	0.180			
0.024	16.300	31.569	14.780	0.090			
0.024	16.400	31.439	14.870	0.090			
0.024	16.600	31.182	15.050	0.180			
0.024	16.800	30.929	15.230	0.180			
0.024	17.100	30.683	15.500	0.270			
0.025	17.200	30.436	15.590	0.090			
0.025	17.400	30.318	15.780	0.180			
0.025	17.600	30.079	15.960	0.180			
0.025	17.700	29.961	16.050	0.090			
0.025	17.800	29.844	16.140	0.090			
0.025	18.000	29.496	16.320	0.180			
0.026	18.100	29.268	16.410	0.090			
0.026	18.200	29.043	16.500	0.090			
0.026	18.400	28.935	16.680	0.180			
0.026	18.500	28.606	16.770	0.090			
0.026	18.600	28.284	16.860	0.090			
0.027	18.700	28.180	16.950	0.090			
0.027	18.800	28.076	17.040	0.090			
0.027	18.900	27.974	17.140	0.090			
0.027	19.000	27.768	17.230	0.090			
0.027	19.100	27.465	17.320	0.090			
0.027	19.300	27.269	17.500	0.180			
0.028	19.400	27.172	17.590	0.090			
0.028	19.500	27.075	17.680	0.090			
0.028	19.600	26.980	17.770	0.090			
0.028	19.700	26.789	17.860	0.090			
0.028	19.800	26.695	17.950	0.090			
0.028	19.900	26.508	18.040	0.090			
0.028	20.100	26.418	18.220	0.180			
0.029	20.400	26.331	18.500	0.270			
0.029	20.500	26.149	18.590	0.090			
0.029	20.600	25.969	18.680	0.090			
0.029	20.700	25.881	18.770	0.090			
0.029	20.800	25.794	18.860	0.090			
0.029	20.900	25.619	18.950	0.090			
0.030	21.000	25.360	19.040	0.090			
0.030	21.100	25.107	19.130	0.090			
0.030	21.300	25.027	19.310	0.180			
0.030	21.400	24.698	19.400	0.090			
0.031	21.500	24.538	19.490	0.090			
0.031	21.600	24.301	19.580	0.090			
0.031	21.700	24.068	19.670	0.090			
0.031	21.800	23.916	19.760	0.090			
0.032	21.900	23.765	19.850	0.090			
0.032	22.000	23.543	19.950	0.090			
0.032	22.100	23.397	20.040	0.090			
0.032	22.200	23.326	20.130	0.090			
0.032	22.300	23.183	20.220	0.090			
0.032	22.400	23.113	20.310	0.090			
0.033	22.500	22.832	20.400	0.090			
0.033	22.600	22.627	20.490	0.090			
0.033	22.700	22.425	20.580	0.090			
0.034	22.800	22.227	20.670	0.090			
0.034	22.900	22.162	20.760	0.090			
0.034	23.000	22.098	20.850	0.090			
0.034	23.100	21.970	20.940	0.090			
0.034	23.200	21.843	21.030	0.090			
0.034	23.400	21.719	21.210	0.180			
0.035	23.500	21.471	21.310	0.090			
0.035	23.600	21.289	21.400	0.090			
0.035	23.700	21.170	21.490	0.090			
0.036	23.800	20.993	21.580	0.090			
0.036	23.900	20.935	21.670	0.090			
0.036	24.000	20.591	21.760	0.090			
0.036	24.200	20.537	21.940	0.180			
0.037	24.300	20.482	22.030	0.090			
0.037	24.600	20.429	22.300	0.270			
0.037	24.800	20.376	22.480	0.180			
0.037	25.000	20.323	22.670	0.180			
0.037	25.300	20.271	22.940	0.270			
0.037	25.400	20.217	23.030	0.090			
0.037	25.500	20.164	23.120	0.090			
0.038	25.600	19.792	23.210	0.090			
0.038	25.700	19.586	23.300	0.090			
0.038	25.800	19.485	23.390	0.090			
0.039	25.900	19.286	23.480	0.090			
0.039	26.000	19.188	23.570	0.090			
0.039	26.100	18.994	23.660	0.090			
0.040	26.200	18.852	23.750	0.090			
0.040	26.300	18.711	23.840	0.090			
0.040	26.400	18.666	23.930	0.090			
0.040	26.500	18.574	24.030	0.090			
0.041	26.600	18.483	24.120	0.090			
0.041	26.700	18.348	24.210	0.090			
0.041	26.800	18.171	24.300	0.090			
0.042	26.900	17.997	24.390	0.090			
0.042	27.000	17.785	24.480	0.090			
0.042	27.100	17.660	24.570	0.090			
0.043	27.200	17.536	24.660	0.090			
0.043	27.300	17.334	24.750	0.090			
0.043	27.600	17.297	25.020	0.270			
0.043	27.700	17.258	25.110	0.090			
0.043	27.800	17.219	25.200	0.090			
0.044	27.900	17.180	25.290	0.090			
0.044	28.000	17.102	25.390	0.090			
0.045	28.100	16.834	25.480	0.090			
0.045	28.200	16.685	25.570	0.090			
0.045	28.300	16.575	25.660	0.090			
0.045	28.400	16.502	25.750	0.090			
0.046	28.500	16.395	25.840	0.090			
0.046	28.600	16.289	25.930	0.090			
0.046	28.700	16.254	26.020	0.090			
0.046	28.800	16.149	26.110	0.090			
0.047	28.900	16.046	26.200	0.090			
0.047	29.000	15.945	26.290	0.090			
0.047	29.100	15.878	26.380	0.090			
0.048	29.200	15.646	26.470	0.090			
0.048	29.300	15.582	26.560	0.090			
0.049	29.400	15.422	26.650	0.090			
0.049	29.500	15.328	26.750	0.090			
0.049	29.600	15.235	26.840	0.090			
0.050	29.700	15.113	26.930	0.090			
0.051	29.800	14.814	27.020	0.090			
0.051	29.900	14.670	27.110	0.090			
0.051	30.000	14.642	27.200	0.090			
0.051	30.100	14.585	27.290	0.090			
0.052	30.200	14.501	27.380	0.090			
0.052	30.300	14.281	27.470	0.090			
0.053	30.400	14.146	27.560	0.090			
0.053	30.500	14.041	27.650	0.090			
0.054	30.600	13.963	27.740	0.090			
0.054	30.700	13.937	27.830	0.090			
0.055	30.800	13.633	27.920	0.090			
0.056	30.900	13.511	28.010	0.090			
0.056	31.000	13.415	28.110	0.090			
0.056	31.100	13.320	28.200	0.090			
0.057	31.200	13.226	28.290	0.090			
0.058	31.300	13.020	28.380	0.090			
0.058	31.400	12.930	28.470	0.090			
0.058	31.500	12.820	28.560	0.090			
0.059	31.600	12.712	28.650	0.090			
0.059	31.700	12.691	28.740	0.090			
0.059	31.800	12.627	28.830	0.090			
0.060	31.900	12.585	28.920	0.090			
0.060	32.000	12.522	29.010	0.090			
0.061	32.100	12.317	29.100	0.090			
0.061	32.200	12.217	29.190	0.090			
0.062	32.300	12.118	29.280	0.090			
0.062	32.400	12.041	29.370	0.090			
0.063	32.500	11.832	29.470	0.090			
0.064	32.600	11.721	29.560	0.090			
0.064	32.700	11.631	29.650	0.090			
0.065	32.800	11.541	29.740	0.090			
0.065	32.900	11.436	29.830	0.090			
0.066	33.000	11.367	29.920	0.090			
0.066	33.100	11.282	30.010	0.090			
0.067	33.200	11.181	30.100	0.090			
0.068	33.300	11.066	30.190	0.090			
0.069	33.400	10.873	30.280	0.090			
0.069	33.500	10.795	30.370	0.090			
0.070	33.600	10.703	30.460	0.090			
0.070	33.700	10.642	30.550	0.090			
0.071	33.800	10.568	30.640	0.090			
0.071	33.900	10.494	30.730	0.090			
0.072	34.000	10.421	30.830	0.090			
0.073	34.100	10.236	30.920	0.090			
0.074	34.200	10.153	31.010	0.090			
0.074	34.300	10.085	31.100	0.090			
0.075	34.400	10.032	31.190	0.090			
0.075	34.500	9.952	31.280	0.090			
0.076	34.700	9.887	31.460	0.180			
0.076	34.900	9.822	31.640	0.180			
0.078	35.000	9.646	31.730	0.090			
0.078	35.100	9.609	31.820	0.090			
0.079	35.200	9.536	31.910	0.090			
0.079	35.300	9.476	32.000	0.090			
0.079	35.400	9.440	32.090	0.090			
0.080	35.500	9.311	32.180	0.090			
0.081	35.600	9.265	32.280	0.090			
0.082	35.700	9.197	32.370	0.090			
0.082	35.800	9.130	32.460	0.090			
0.083	35.900	9.064	32.550	0.090			
0.083	36.000	9.032	32.640	0.090			
0.083	36.100	8.989	32.730	0.090			
0.084	36.200	8.946	32.820	0.090			
0.085	36.300	8.809	32.910	0.090			
0.086	36.400	8.738	33.000	0.090			
0.086	36.500	8.667	33.090	0.090			
0.087	36.600	8.607	33.180	0.090			
0.088	36.700	8.491	33.270	0.090			
0.089	36.800	8.424	33.360	0.090			
0.090	36.900	8.368	33.450	0.090			
0.090	37.000	8.340	33.540	0.090			
0.091	37.100	8.257	33.640	0.090			
0.092	37.200	8.123	33.730	0.090			
0.093	37.300	8.062	33.820	0.090			
0.094	37.400	7.985	33.910	0.090			
0.094	37.500	7.943	34.000	0.090			
0.095	37.600	7.893	34.090	0.090			
0.097	37.700	7.746	34.180	0.090			
0.098	37.800	7.667	34.270	0.090			
0.099	37.900	7.589	34.360	0.090			
0.100	38.000	7.529	34.450	0.090			
0.101	38.100	7.454	34.540	0.090			
0.101	38.200	7.388	34.630	0.090			
0.102	38.300	7.323	34.720	0.090			
0.104	38.400	7.190	34.810	0.090			
0.105	38.500	7.128	34.900	0.090			
0.106	38.600	7.074	35.000	0.090			
0.106	38.700	7.035	35.090	0.090			
0.107	38.800	6.982	35.180	0.090			
0.109	38.900	6.855	35.270	0.090			
0.110	39.100	6.818	35.450	0.180			
0.111	39.200	6.750	35.540	0.090			
0.113	39.300	6.637	35.630	0.090			
0.114	39.400	6.578	35.720	0.090			
0.115	39.500	6.533	35.810	0.090			
0.115	39.600	6.493	35.900	0.090			
0.118	39.700	6.366	35.990	0.090			
0.119	39.700	6.308	35.990	0.000			
0.120	39.800	6.255	36.080	0.090			
0.120	39.900	6.224	36.170	0.090			
0.121	40.000	6.183	36.260	0.090			
0.122	40.100	6.142	36.360	0.090			
0.123	40.200	6.098	36.450	0.090			
0.124	40.300	6.048	36.540	0.090			
0.125	40.400	5.990	36.630	0.090			
0.127	40.500	5.882	36.720	0.090			
0.128	40.600	5.841	36.810	0.090			
0.130	40.700	5.787	36.900	0.090			
0.131	40.800	5.738	36.990	0.090			
0.132	40.900	5.699	37.080	0.090			
0.134	41.000	5.610	37.170	0.090			
0.135	41.200	5.568	37.350	0.180			
0.136	41.300	5.527	37.440	0.090			
0.138	41.400	5.439	37.530	0.090			
0.139	41.400	5.392	37.530	0.000			
0.140	41.500	5.357	37.620	0.090			
0.141	41.600	5.312	37.720	0.090			
0.142	41.700	5.260	37.810	0.090			
0.145	41.800	5.169	37.900	0.090			
0.146	41.900	5.116	37.990	0.090			
0.147	42.000	5.082	38.080	0.090			
0.149	42.100	5.037	38.170	0.090			
0.150	42.200	4.987	38.260	0.090			
0.152	42.300	4.938	38.350	0.090			
0.153	42.400	4.886	38.440	0.090			
0.157	42.500	4.783	38.530	0.090			
0.158	42.500	4.735	38.530	0.000			
0.160	42.600	4.679	38.620	0.090			
0.161	42.700	4.644	38.710	0.090			
0.163	42.800	4.607	38.800	0.090			
0.164	42.900	4.565	38.890	0.090			
0.165	43.000	4.532	38.980	0.090			
0.167	43.100	4.478	39.080	0.090			
0.169	43.200	4.443	39.170	0.090			
0.172	43.300	4.353	39.260	0.090			
0.174	43.400	4.303	39.350	0.090			
0.176	43.500	4.266	39.440	0.090			
0.178	43.600	4.218	39.530	0.090			
0.181	43.700	4.148	39.620	0.090			
0.182	43.800	4.117	39.710	0.090			
0.184	43.900	4.079	39.800	0.090			
0.185	44.000	4.041	39.890	0.090			
0.186	44.100	4.035	39.980	0.090			
0.190	44.200	3.952	40.070	0.090			
0.191	44.300	3.915	40.160	0.090			
0.192	44.400	3.900	40.250	0.090			
0.194	44.500	3.870	40.340	0.090			
0.196	44.600	3.829	40.440	0.090			
0.199	44.700	3.775	40.530	0.090			
0.200	44.800	3.746	40.620	0.090			
0.202	44.900	3.713	40.710	0.090			
0.204	45.000	3.680	40.800	0.090			
0.205	45.100	3.657	40.890	0.090			
0.207	45.200	3.620	40.980	0.090			
0.209	45.300	3.592	41.070	0.090			
0.212	45.400	3.531	41.160	0.090			
0.214	45.500	3.500	41.250	0.090			
0.216	45.600	3.468	41.340	0.090			
0.218	45.700	3.439	41.430	0.090			
0.220	45.800	3.414	41.520	0.090			
0.223	45.900	3.357	41.610	0.090			
0.225	46.000	3.329	41.700	0.090			
0.228	46.100	3.292	41.800	0.090			
0.228	46.100	3.288	41.800	0.000			
0.230	46.200	3.262	41.890	0.090			
0.233	46.300	3.215	41.980	0.090			
0.235	46.400	3.185	42.070	0.090			
0.238	46.500	3.153	42.160	0.090			
0.239	46.600	3.130	42.250	0.090			
0.244	46.700	3.071	42.340	0.090			
0.246	46.800	3.041	42.430	0.090			
0.248	46.900	3.023	42.520	0.090			
0.250	47.000	2.999	42.610	0.090			
0.252	47.100	2.976	42.700	0.090			
0.254	47.200	2.950	42.790	0.090			
0.256	47.300	2.927	42.880	0.090			
0.258	47.400	2.907	42.970	0.090			
0.269	47.600	2.790	43.160	0.180			
0.279	48.200	2.690	43.700	0.540			
0.289	49.200	2.597	44.610	0.910			
0.298	49.600	2.510	44.970	0.360			
0.308	50.300	2.429	45.600	0.630			
0.318	50.700	2.353	45.970	0.360			
0.328	51.100	2.281	46.330	0.360			
0.338	51.700	2.214	46.870	0.540			
0.348	52.300	2.150	47.420	0.540			
0.358	52.900	2.090	47.960	0.540			
0.368	53.700	2.034	48.690	0.730			
0.378	54.500	1.980	49.410	0.730			
0.388	54.700	1.929	49.590	0.180			
0.408	55.500	1.835	50.320	0.730			
0.418	56.100	1.791	50.860	0.540			
0.428	56.500	1.749	51.220	0.360			
0.438	56.700	1.709	51.410	0.180			
0.448	56.900	1.671	51.590	0.180			
0.458	57.500	1.635	52.130	0.540			
0.468	58.500	1.600	53.040	0.910			
0.488	59.500	1.534	53.940	0.910			
0.498	59.700	1.504	54.130	0.180			
0.508	60.500	1.474	54.850	0.730			
0.518	60.700	1.446	55.030	0.180			
0.528	60.900	1.418	55.210	0.180			
0.538	61.500	1.392	55.760	0.540			
0.548	62.500	1.367	56.660	0.910			
0.568	62.900	1.318	57.030	0.360			
0.578	63.900	1.296	57.930	0.910			
0.588	64.300	1.274	58.300	0.360			
0.608	64.500	1.232	58.480	0.180			
0.628	65.200	1.193	59.110	0.630			
0.638	66.000	1.174	59.840	0.730			
0.658	66.800	1.138	60.560	0.730			
0.678	67.600	1.105	61.290	0.730			
0.698	68.000	1.073	61.650	0.360			
0.728	69.200	1.029	62.740	1.090			
0.738	70.600	1.015	64.010	1.270			
0.768	70.800	0.975	64.190	0.180			
0.788	72.200	0.951	65.460	1.270			
0.818	72.400	0.916	65.640	0.180			
0.828	73.200	0.905	66.360	0.730			
0.848	74.000	0.883	67.090	0.730			
0.888	75.000	0.844	68.000	0.910			
0.898	76.400	0.834	69.270	1.270			
0.938	76.800	0.799	69.630	0.360			
0.948	77.000	0.790	69.810	0.180			
0.958	77.200	0.782	69.990	0.180			
0.968	78.300	0.774	70.990	1.000			
1.008	78.700	0.743	71.350	0.360			
1.038	79.900	0.722	72.440	1.090			
1.078	81.100	0.695	73.530	1.090			
1.088	81.900	0.689	74.250	0.730			
1.118	82.100	0.670	74.430	0.180			
1.138	83.300	0.658	75.520	1.090			
1.168	84.700	0.642	76.790	1.270			
1.198	85.300	0.625	77.330	0.540			
1.218	85.500	0.615	77.520	0.180			
1.248	86.700	0.600	78.600	1.090			
1.258	87.300	0.596	79.150	0.540			
1.318	88.700	0.569	80.420	1.270			
1.338	89.900	0.560	81.500	1.090			
1.388	90.500	0.540	82.050	0.540			
1.398	90.700	0.536	82.230	0.180			
1.418	90.900	0.528	82.410	0.180			
1.428	92.100	0.525	83.500	1.090			
1.448	93.500	0.518	84.770	1.270			
1.498	93.900	0.500	85.130	0.360			
1.518	94.100	0.494	85.310	0.180			
1.528	94.500	0.490	85.680	0.360			
1.538	95.700	0.487	86.760	1.090			
1.588	96.300	0.472	87.310	0.540			
1.628	97.700	0.460	88.580	1.270			
1.688	98.900	0.444	89.660	1.090			
1.708	99.700	0.439	90.390	0.730			
1.738	99.900	0.431	90.570	0.180			
1.748	100.500	0.429	91.120	0.540			
1.767	101.300	0.424	91.840	0.730			
1.797	102.600	0.417	93.020	1.180			
