Instrument type : Porosimeter 2000							
Sample name : O02B2m_2							
Filename : C:\POROSDIR\Pascal_2012\SIMONE_TESI\Combi_Simone\O02b2m_2_comb.Por							
Software version : 1.03B-3							
Date : 21/06/17							
* * * Sample information	* * *						
Company Name : 	FISONS Instruments						
Operator : 	AB						
Date : 	03-15-2017						
Sample name : 	O02B2m_2						
Preparation : 	secco all'aria						
Sample mass (g) : 	1.185						
Sample density (g) : 	1.3						
Mercury height (mm) : 	64.5						
Vol. at run (mm3) : 	259						
Weight dilatometer+mercury+sample (g) : 	256.29						
Weight dil.+mercury+sample correct(g) : 	0						
Capillary mercury height (mm) : 	36.641						
Bulk D.calc. at 250 (kPa)-->Vol.(mm3): 	36.5166						
							
* * * Acquisition parameters	* * *						
Max pressure : 	2000						
Pump speed increase : 	1						
Pump speed decrease : 	1						
Pump speed inc. compensation : 	Pascal						
Pump speed dec. compensation : 	Pascal						
Dilatometer number : 	1						
Dilatometer type : 	Normal						
							
* * * Calculation parameters	* * *						
Conctact angle (Deg) : 	141.3						
Hg surface tension (Dyne/cm) : 	480						
Hg density (g/cm3) : 	13.5438						
Temperature Hg (°C): 	21						
Pores model : 	Cylindrical						
Sample volume correction : 	Yes						
Region start : 	0						
Region stop : 	1000						
Region number of intervals : 	50						
Pores average mode : 	Range						
Particle size distribution : 	No						
Kp factor : 	11.7003						
Cut off radius : 	0-0						
							
* * * Blank parameters	* * *						
Blank data file path : 	C:\POROSDIR\Pascal_2012\SIMONE_TESI\Poros_2000\Dil8new.por						
Blank name instrument : 	Porosimeter 2000						
Num. of blank data points increase : 	293						
Num. of blank data points decrease : 	103						
Filling volume (mm3) : 	459 (from blank file)						
Weight dilatometer (g) : 	43.759 (from blank file)						
Weight dilatometer+Hg (g) : 	263.03 (from blank file)						
Capillary radius (mm) : 	1.5 (from blank file)						
Dilatometer cone height (mm) : 	28 (from blank file)						
Hg density blank (g/cm3) : 	13.5438 (from blank file)						
Temperature Hg (°C): 	21						
							
							
R E S U L T S							
Total cumulative volume (mm3/g) : 	168.3544006						
Total specific surface area (m²/g) : 	4.322999954						
Average pore radius (Micron) : 	0.2795340121						
Total  porosity (%) : 	34.0945015						
Bulk density  (g/cm3) : 	2.025160074						
Bulk density (g/cm3) at 250 (kPa) : 	2.159960032						
Apparent density (g/cm3) : 	3.072829962						
Sample volume correction : 	0.9638575912						
							
P O R E   S I Z E   D I S T R I B U T I O N (custom ranges)							
Pore radius ranges	Specific Volume	Relative Volume	Relative Volume				
(µM)	(mm3/g)	(mm3/g)	(%)				
10000-1000	0.000	0.000	0.000				
1000-100	0.000	0.000	0.000				
100-10	25.650	25.650	15.240				
10-1	39.410	13.760	8.170				
1-.1	125.230	85.820	50.980				
.1-.01	162.190	36.960	21.950				
.01-.001	168.350	6.160	3.660				
							
P A R T I C L E   S I Z E   D I S T R I B U T I O N							
Particle diameter range	Cum. Distr. Vol.	Rel. Distr. Vol.	Cumulative Area				
(µM)	(%)	(%)	(m²/g)				
200-150	1.060	1.060	0.000				
150-90	2.930	1.870	0.001				
90-64	3.840	0.910	0.001				
64-45	4.500	0.660	0.002				
45-32	5.160	0.660	0.002				
32-23	6.320	1.160	0.004				
23-16	8.240	1.920	0.008				
16-14	9.050	0.810	0.011				
14-12	10.170	1.110	0.014				
12-10	11.680	1.520	0.020				
10-8	14.310	2.630	0.032				
8-6	18.720	4.400	0.057				
6-4	27.820	9.100	0.132				
4-2	48.860	21.040	0.429				
2-1	64.690	15.830	0.864				
1-0	87.460	22.760	4.322				
							
D A T A   R E P O R T							
Pressure	Volume	Radius	Spec.Vol.	Rel.Vol.			
(MPa)	(mm3)	(µm)	(mm3/g)	(mm3/g)			
0.009	1.800	84.877	1.520	1.520			
0.009	1.900	83.944	1.600	0.080			
0.009	2.300	82.173	1.940	0.340			
0.009	2.400	81.299	2.030	0.080			
0.009	2.700	80.476	2.280	0.250			
0.009	2.800	78.799	2.360	0.080			
0.010	3.200	77.237	2.700	0.340			
0.010	3.400	76.479	2.870	0.170			
0.010	3.500	74.963	2.950	0.080			
0.010	3.700	74.249	3.120	0.170			
0.010	3.800	73.534	3.210	0.080			
0.010	3.900	72.833	3.290	0.080			
0.010	4.000	72.145	3.380	0.080			
0.010	4.300	71.496	3.630	0.250			
0.011	4.500	70.846	3.800	0.170			
0.011	4.600	70.195	3.880	0.080			
0.011	4.700	69.556	3.970	0.080			
0.011	4.800	68.929	4.050	0.080			
0.011	4.900	68.312	4.140	0.080			
0.011	5.200	67.730	4.390	0.250			
0.011	5.300	67.135	4.470	0.080			
0.011	5.400	66.550	4.560	0.080			
0.012	5.500	65.399	4.640	0.080			
0.012	5.600	64.844	4.730	0.080			
0.012	5.800	63.762	4.890	0.170			
0.012	5.900	62.184	4.980	0.080			
0.012	6.000	61.682	5.060	0.080			
0.012	6.100	61.188	5.150	0.080			
0.012	6.900	60.768	5.820	0.680			
0.013	7.600	59.862	6.410	0.590			
0.013	8.000	58.957	6.750	0.340			
0.013	8.100	58.052	6.840	0.080			
0.013	8.200	57.614	6.920	0.080			
0.013	8.900	57.233	7.510	0.590			
0.013	9.100	56.816	7.680	0.170			
0.013	9.600	56.007	8.100	0.420			
0.014	9.700	55.190	8.190	0.080			
0.014	9.800	54.794	8.270	0.080			
0.014	9.900	54.404	8.350	0.080			
0.014	10.000	54.019	8.440	0.080			
0.014	10.100	53.640	8.520	0.080			
0.014	10.200	52.890	8.610	0.080			
0.014	10.300	52.526	8.690	0.080			
0.014	10.400	52.167	8.780	0.080			
0.014	10.600	51.820	8.950	0.170			
0.015	10.700	51.471	9.030	0.080			
0.015	10.800	50.780	9.110	0.080			
0.015	10.900	50.445	9.200	0.080			
0.015	11.000	50.114	9.280	0.080			
0.015	11.300	49.471	9.540	0.250			
0.015	11.500	48.839	9.700	0.170			
0.015	11.600	48.528	9.790	0.080			
0.016	11.700	47.914	9.870	0.080			
0.016	11.800	47.314	9.960	0.080			
0.016	11.900	47.023	10.040	0.080			
0.016	12.100	46.741	10.210	0.170			
0.016	12.200	46.170	10.300	0.080			
0.016	12.300	45.893	10.380	0.080			
0.016	12.400	45.343	10.460	0.080			
0.017	12.600	44.811	10.630	0.170			
0.017	12.800	44.555	10.800	0.170			
0.017	12.900	44.296	10.890	0.080			
0.017	13.000	43.784	10.970	0.080			
0.017	13.100	43.534	11.050	0.080			
0.017	13.300	43.292	11.220	0.170			
0.018	13.400	42.559	11.310	0.080			
0.018	13.600	41.855	11.480	0.170			
0.018	13.800	41.401	11.650	0.170			
0.018	13.900	40.953	11.730	0.080			
0.019	14.000	40.514	11.810	0.080			
0.019	14.100	40.085	11.900	0.080			
0.019	14.300	39.669	12.070	0.170			
0.019	14.400	39.257	12.150	0.080			
0.019	14.500	39.056	12.240	0.080			
0.020	14.600	38.459	12.320	0.080			
0.020	14.700	38.266	12.410	0.080			
0.020	14.800	37.883	12.490	0.080			
0.020	14.900	37.507	12.570	0.080			
0.020	15.000	37.324	12.660	0.080			
0.020	15.100	37.142	12.740	0.080			
0.020	15.200	36.781	12.830	0.080			
0.021	16.100	36.278	13.590	0.760			
0.021	16.400	36.113	13.840	0.250			
0.021	16.600	35.946	14.010	0.170			
0.021	16.700	35.273	14.090	0.080			
0.021	16.900	35.114	14.260	0.170			
0.022	17.200	34.797	14.510	0.250			
0.022	17.300	34.639	14.600	0.080			
0.022	17.400	34.483	14.680	0.080			
0.022	17.600	34.019	14.850	0.170			
0.022	17.700	33.716	14.940	0.080			
0.022	17.800	33.418	15.020	0.080			
0.023	17.900	33.272	15.110	0.080			
0.023	18.000	32.694	15.190	0.080			
0.023	18.200	32.558	15.360	0.170			
0.023	18.300	32.280	15.440	0.080			
0.023	18.400	32.144	15.530	0.080			
0.023	18.500	32.009	15.610	0.080			
0.023	18.600	31.876	15.700	0.080			
0.024	18.700	31.743	15.780	0.080			
0.024	18.800	31.479	15.860	0.080			
0.024	18.900	30.961	15.950	0.080			
0.024	19.000	30.836	16.030	0.080			
0.024	19.100	30.712	16.120	0.080			
0.025	19.200	30.219	16.200	0.080			
0.025	19.400	30.103	16.370	0.170			
0.025	19.500	29.865	16.460	0.080			
0.025	19.600	29.514	16.540	0.080			
0.025	19.800	29.403	16.710	0.170			
0.026	19.900	29.290	16.790	0.080			
0.026	20.000	29.178	16.880	0.080			
0.026	20.100	29.067	16.960	0.080			
0.026	20.200	28.735	17.050	0.080			
0.026	20.300	28.627	17.130	0.080			
0.026	20.400	28.520	17.220	0.080			
0.027	20.500	28.200	17.300	0.080			
0.027	20.700	27.994	17.470	0.170			
0.027	20.800	27.788	17.550	0.080			
0.027	20.900	27.585	17.640	0.080			
0.027	21.000	27.486	17.720	0.080			
0.028	21.100	27.189	17.810	0.080			
0.028	21.200	26.706	17.890	0.080			
0.028	21.300	26.519	17.970	0.080			
0.028	21.400	26.427	18.060	0.080			
0.028	21.500	26.336	18.140	0.080			
0.029	21.700	26.156	18.310	0.170			
0.029	21.800	25.709	18.400	0.080			
0.029	21.900	25.622	18.480	0.080			
0.030	22.000	25.193	18.570	0.080			
0.030	22.100	25.027	18.650	0.080			
0.030	22.200	24.780	18.730	0.080			
0.031	22.300	24.538	18.820	0.080			
0.031	22.400	24.301	18.900	0.080			
0.031	22.500	24.068	18.990	0.080			
0.031	22.600	23.840	19.070	0.080			
0.032	22.700	23.616	19.160	0.080			
0.032	22.800	23.396	19.240	0.080			
0.032	22.900	23.180	19.320	0.080			
0.033	23.000	22.968	19.410	0.080			
0.033	23.100	22.623	19.490	0.080			
0.033	23.200	22.421	19.580	0.080			
0.034	23.300	22.289	19.660	0.080			
0.034	23.400	22.158	19.750	0.080			
0.034	23.500	21.773	19.830	0.080			
0.035	23.600	21.524	19.920	0.080			
0.035	23.700	21.464	20.000	0.080			
0.035	23.800	21.343	20.080	0.080			
0.035	24.100	21.285	20.340	0.250			
0.035	24.800	21.233	20.930	0.590			
0.036	24.900	20.879	21.010	0.080			
0.036	25.000	20.707	21.100	0.080			
0.037	25.100	20.482	21.180	0.080			
0.037	25.200	20.262	21.270	0.080			
0.038	25.300	19.781	21.350	0.080			
0.038	25.400	19.575	21.430	0.080			
0.039	25.500	19.374	21.520	0.080			
0.039	25.600	19.079	21.600	0.080			
0.040	25.700	18.935	21.690	0.080			
0.040	25.800	18.746	21.770	0.080			
0.041	25.900	18.470	21.860	0.080			
0.041	26.000	18.246	21.940	0.080			
0.041	26.100	18.071	22.030	0.080			
0.042	26.200	17.730	22.110	0.080			
0.043	26.300	17.605	22.190	0.080			
0.043	26.400	17.442	22.280	0.080			
0.044	26.500	17.203	22.360	0.080			
0.044	26.600	17.047	22.450	0.080			
0.045	26.700	16.631	22.530	0.080			
0.045	26.800	16.522	22.620	0.080			
0.046	26.900	16.342	22.700	0.080			
0.046	27.000	16.202	22.780	0.080			
0.047	27.100	15.995	22.870	0.080			
0.047	27.200	15.793	22.950	0.080			
0.048	27.300	15.662	23.040	0.080			
0.048	27.400	15.565	23.120	0.080			
0.049	27.500	15.126	23.210	0.080			
0.050	27.600	14.975	23.290	0.080			
0.051	27.700	14.798	23.380	0.080			
0.051	27.800	14.711	23.460	0.080			
0.051	27.900	14.626	23.540	0.080			
0.052	28.000	14.513	23.630	0.080			
0.052	28.100	14.292	23.710	0.080			
0.054	28.200	13.844	23.800	0.080			
0.055	28.300	13.618	23.880	0.080			
0.056	28.400	13.423	23.970	0.080			
0.056	28.500	13.281	24.050	0.080			
0.057	28.600	13.141	24.140	0.080			
0.059	28.700	12.718	24.220	0.080			
0.060	28.800	12.527	24.300	0.080			
0.060	28.900	12.403	24.390	0.080			
0.061	29.000	12.362	24.470	0.080			
0.061	29.100	12.202	24.560	0.080			
0.064	29.200	11.799	24.640	0.080			
0.064	29.300	11.634	24.730	0.080			
0.065	29.400	11.509	24.810	0.080			
0.066	29.500	11.335	24.890	0.080			
0.068	29.600	10.987	24.980	0.080			
0.068	29.700	10.939	25.060	0.080			
0.069	29.900	10.924	25.230	0.170			
0.069	30.000	10.908	25.320	0.080			
0.070	30.100	10.706	25.400	0.080			
0.071	30.200	10.525	25.490	0.080			
0.072	30.300	10.380	25.570	0.080			
0.074	30.400	10.183	25.650	0.080			
0.076	30.500	9.887	25.740	0.080			
0.077	30.600	9.708	25.820	0.080			
0.078	30.700	9.560	25.910	0.080			
0.080	30.800	9.369	25.990	0.080			
0.083	30.900	9.030	26.080	0.080			
0.084	31.100	8.944	26.240	0.170			
0.084	31.200	8.891	26.330	0.080			
0.085	31.300	8.808	26.410	0.080			
0.085	31.400	8.777	26.500	0.080			
0.086	31.500	8.747	26.580	0.080			
0.086	31.600	8.737	26.670	0.080			
0.086	31.700	8.676	26.750	0.080			
0.089	31.800	8.470	26.840	0.080			
0.090	31.900	8.339	26.920	0.080			
0.091	32.000	8.193	27.000	0.080			
0.094	32.100	8.009	27.090	0.080			
0.095	32.200	7.883	27.170	0.080			
0.097	32.300	7.761	27.260	0.080			
0.099	32.400	7.596	27.340	0.080			
0.102	32.500	7.350	27.430	0.080			
0.102	32.600	7.328	27.510	0.080			
0.102	32.700	7.307	27.590	0.080			
0.103	32.800	7.265	27.680	0.080			
0.104	32.900	7.230	27.760	0.080			
0.105	33.000	7.127	27.850	0.080			
0.107	33.100	6.994	27.930	0.080			
0.108	33.200	6.929	28.020	0.080			
0.110	33.300	6.828	28.100	0.080			
0.114	33.400	6.565	28.190	0.080			
0.116	33.500	6.469	28.270	0.080			
0.118	33.600	6.359	28.350	0.080			
0.120	33.600	6.248	28.350	0.000			
0.124	33.700	6.041	28.440	0.080			
0.126	33.800	5.946	28.520	0.080			
0.129	33.900	5.826	28.610	0.080			
0.130	34.000	5.758	28.690	0.080			
0.133	34.100	5.646	28.780	0.080			
0.137	34.200	5.485	28.860	0.080			
0.140	34.200	5.371	28.860	0.000			
0.142	34.300	5.265	28.950	0.080			
0.146	34.400	5.142	29.030	0.080			
0.149	34.500	5.035	29.110	0.080			
0.154	34.600	4.856	29.200	0.080			
0.158	34.700	4.751	29.280	0.080			
0.162	34.700	4.637	29.280	0.000			
0.164	34.800	4.555	29.370	0.080			
0.172	35.000	4.361	29.540	0.170			
0.176	35.100	4.267	29.620	0.080			
0.184	35.200	4.072	29.700	0.080			
0.189	35.300	3.965	29.790	0.080			
0.193	35.400	3.890	29.870	0.080			
0.196	35.500	3.825	29.960	0.080			
0.199	35.600	3.762	30.040	0.080			
0.204	35.700	3.675	30.130	0.080			
0.212	35.800	3.530	30.210	0.080			
0.217	35.900	3.458	30.300	0.080			
0.220	36.000	3.405	30.380	0.080			
0.222	36.100	3.374	30.460	0.080			
0.226	36.200	3.320	30.550	0.080			
0.230	36.200	3.251	30.550	0.000			
0.236	36.300	3.181	30.630	0.080			
0.245	36.400	3.064	30.720	0.080			
0.249	36.500	3.007	30.800	0.080			
0.254	36.600	2.947	30.890	0.080			
0.299	36.800	2.508	31.050	0.170			
0.309	37.100	2.427	31.310	0.250			
0.319	37.300	2.351	31.480	0.170			
0.329	37.700	2.280	31.810	0.340			
0.339	37.900	2.212	31.980	0.170			
0.349	38.100	2.149	32.150	0.170			
0.359	38.500	2.089	32.490	0.340			
0.369	38.700	2.032	32.660	0.170			
0.379	38.900	1.979	32.830	0.170			
0.389	39.100	1.928	33.000	0.170			
0.399	39.300	1.879	33.160	0.170			
0.419	39.700	1.790	33.500	0.340			
0.429	39.900	1.748	33.670	0.170			
0.439	40.500	1.708	34.180	0.510			
0.459	40.900	1.634	34.510	0.340			
0.469	41.100	1.599	34.680	0.170			
0.479	41.300	1.565	34.850	0.170			
0.489	41.500	1.533	35.020	0.170			
0.499	41.700	1.503	35.190	0.170			
0.509	42.100	1.473	35.530	0.340			
0.529	42.300	1.417	35.700	0.170			
0.539	42.500	1.391	35.860	0.170			
0.549	42.900	1.366	36.200	0.340			
0.579	43.500	1.295	36.710	0.510			
0.599	43.700	1.252	36.880	0.170			
0.639	44.500	1.173	37.550	0.680			
0.659	44.900	1.138	37.890	0.340			
0.669	45.300	1.121	38.230	0.340			
0.689	45.500	1.088	38.400	0.170			
0.699	45.700	1.073	38.570	0.170			
0.728	46.500	1.028	39.240	0.680			
0.748	46.700	1.001	39.410	0.170			
0.758	46.900	0.988	39.580	0.170			
0.768	47.100	0.975	39.750	0.170			
0.798	47.700	0.938	40.250	0.510			
0.808	48.300	0.927	40.760	0.510			
0.848	48.700	0.883	41.100	0.340			
0.858	49.300	0.873	41.600	0.510			
0.898	49.700	0.834	41.940	0.340			
0.918	50.300	0.816	42.450	0.510			
0.928	50.900	0.807	42.950	0.510			
0.958	51.700	0.782	43.630	0.680			
0.978	51.900	0.766	43.800	0.170			
1.018	52.900	0.736	44.640	0.840			
1.038	53.100	0.722	44.810	0.170			
1.058	53.300	0.708	44.980	0.170			
1.088	54.300	0.688	45.820	0.840			
1.118	54.900	0.670	46.330	0.510			
1.158	55.900	0.647	47.170	0.840			
1.178	56.300	0.636	47.510	0.340			
1.208	56.700	0.620	47.850	0.340			
1.218	56.900	0.615	48.020	0.170			
1.228	58.100	0.610	49.030	1.010			
1.248	58.900	0.600	49.700	0.680			
1.288	59.300	0.582	50.040	0.340			
1.298	59.500	0.577	50.210	0.170			
1.318	59.600	0.568	50.300	0.080			
1.328	60.600	0.564	51.140	0.840			
1.378	61.000	0.544	51.480	0.340			
1.398	62.000	0.536	52.320	0.840			
1.458	62.800	0.514	53.000	0.680			
1.468	63.600	0.510	53.670	0.680			
1.528	64.200	0.490	54.180	0.510			
1.538	64.800	0.487	54.680	0.510			
1.548	65.000	0.484	54.850	0.170			
1.558	65.200	0.481	55.020	0.170			
1.598	67.400	0.469	56.880	1.860			
1.638	68.000	0.457	57.380	0.510			
1.698	69.200	0.441	58.400	1.010			
1.718	69.400	0.436	58.570	0.170			
1.738	69.800	0.431	58.900	0.340			
1.768	71.400	0.424	60.250	1.350			
1.798	72.600	0.417	61.270	1.010			
1.858	73.000	0.403	61.600	0.340			
1.898	74.200	0.395	62.620	1.010			
1.928	74.600	0.389	62.950	0.340			
1.938	75.000	0.387	63.290	0.340			
1.948	76.400	0.385	64.470	1.180			
1.968	76.800	0.381	64.810	0.340			
2.038	77.800	0.368	65.650	0.840			
2.058	78.000	0.364	65.820	0.170			
2.068	78.400	0.362	66.160	0.340			
2.118	80.400	0.354	67.850	1.690			
2.198	81.600	0.341	68.860	1.010			
2.208	82.000	0.339	69.200	0.340			
2.218	83.200	0.338	70.210	1.010			
2.278	84.200	0.329	71.050	0.840			
2.308	84.800	0.325	71.560	0.510			
2.338	85.100	0.320	71.810	0.250			
2.348	85.300	0.319	71.980	0.170			
2.368	86.700	0.316	73.160	1.180			
2.388	87.700	0.314	74.010	0.840			
2.468	88.300	0.304	74.510	0.510			
2.508	89.700	0.299	75.700	1.180			
2.558	90.500	0.293	76.370	0.680			
2.588	91.100	0.290	76.880	0.510			
2.628	91.700	0.285	77.380	0.510			
2.638	91.900	0.284	77.550	0.170			
2.668	93.900	0.281	79.240	1.690			
2.688	94.300	0.279	79.580	0.340			
2.748	94.900	0.273	80.080	0.510			
2.768	95.500	0.271	80.590	0.510			
2.788	95.700	0.269	80.760	0.170			
2.828	97.300	0.265	82.110	1.350			
2.848	97.500	0.263	82.280	0.170			
2.897	98.300	0.259	82.950	0.680			
2.917	98.700	0.257	83.290	0.340			
2.937	98.900	0.255	83.460	0.170			
2.957	100.500	0.253	84.810	1.350			
3.017	101.700	0.248	85.820	1.010			
3.067	102.100	0.244	86.160	0.340			
3.137	103.300	0.239	87.170	1.010			
3.167	103.700	0.237	87.510	0.340			
3.197	103.900	0.234	87.680	0.170			
3.207	104.100	0.234	87.850	0.170			
3.227	105.900	0.232	89.370	1.520			
3.267	106.900	0.229	90.210	0.840			
3.337	107.100	0.224	90.380	0.170			
3.357	107.500	0.223	90.720	0.340			
3.367	107.700	0.222	90.890	0.170			
3.407	108.900	0.220	91.900	1.010			
3.457	110.100	0.217	92.910	1.010			
3.537	110.500	0.212	93.250	0.340			
3.577	111.500	0.209	94.090	0.840			
3.617	111.700	0.207	94.260	0.170			
3.627	111.900	0.207	94.430	0.170			
3.647	113.100	0.205	95.440	1.010			
3.677	113.700	0.204	95.950	0.510			
3.757	114.500	0.199	96.620	0.680			
3.777	114.700	0.198	96.790	0.170			
3.787	114.900	0.198	96.960	0.170			
3.797	115.100	0.197	97.130	0.170			
3.867	116.500	0.194	98.310	1.180			
3.917	117.000	0.191	98.730	0.420			
4.007	118.000	0.187	99.580	0.840			
4.037	118.200	0.186	99.750	0.170			
4.097	118.800	0.183	100.250	0.510			
4.117	119.200	0.182	100.590	0.340			
4.137	119.400	0.181	100.760	0.170			
4.157	121.000	0.180	102.110	1.350			
4.237	121.200	0.177	102.280	0.170			
4.277	122.000	0.175	102.950	0.680			
4.367	122.400	0.172	103.290	0.340			
4.397	123.200	0.170	103.970	0.680			
4.437	123.400	0.169	104.140	0.170			
4.447	123.600	0.168	104.300	0.170			
4.477	124.800	0.167	105.320	1.010			
4.557	125.200	0.164	105.650	0.340			
4.597	126.000	0.163	106.330	0.680			
4.687	126.400	0.160	106.670	0.340			
4.707	126.800	0.159	107.000	0.340			
4.727	127.000	0.158	107.170	0.170			
4.747	127.800	0.158	107.850	0.680			
4.767	128.400	0.157	108.350	0.510			
4.867	128.800	0.154	108.690	0.340			
4.897	129.000	0.153	108.860	0.170			
4.907	129.200	0.153	109.030	0.170			
4.917	129.400	0.152	109.200	0.170			
4.977	130.200	0.151	109.870	0.680			
5.057	130.800	0.148	110.380	0.510			
5.077	131.000	0.148	110.550	0.170			
5.097	131.200	0.147	110.720	0.170			
5.107	131.400	0.147	110.890	0.170			
5.117	132.000	0.146	111.390	0.510			
5.147	132.200	0.146	111.560	0.170			
5.247	132.800	0.143	112.070	0.510			
5.337	133.200	0.140	112.410	0.340			
5.367	133.800	0.140	112.910	0.510			
5.427	134.000	0.138	113.080	0.170			
5.457	134.100	0.137	113.160	0.080			
5.477	134.300	0.137	113.330	0.170			
5.517	135.500	0.136	114.350	1.010			
5.607	135.900	0.134	114.680	0.340			
5.647	136.100	0.133	114.850	0.170			
5.667	136.300	0.132	115.020	0.170			
5.727	137.300	0.131	115.860	0.840			
5.807	137.700	0.129	116.200	0.340			
5.857	137.800	0.128	116.290	0.080			
5.897	139.000	0.127	117.300	1.010			
5.987	139.400	0.125	117.640	0.340			
6.047	139.600	0.124	117.810	0.170			
6.057	139.800	0.124	117.970	0.170			
6.117	140.400	0.122	118.480	0.510			
6.157	140.800	0.122	118.820	0.340			
6.257	140.900	0.120	118.900	0.080			
6.297	141.500	0.119	119.410	0.510			
6.377	141.700	0.117	119.580	0.170			
6.397	141.900	0.117	119.750	0.170			
6.417	142.100	0.117	119.920	0.170			
6.527	143.100	0.115	120.760	0.840			
