Instrument type : Porosimeter 2000							
Sample name : O02B2m							
Filename : C:\POROSDIR\Pascal_2012\SIMONE_TESI\Combi_Simone\O02b2m_comb.Por							
Software version : 1.03B-3							
Date : 21/06/17							
* * * Sample information	* * *						
Company Name : 	Fisons Instruments SpA						
Operator : 	AB						
Date : 	13/03/2017						
Sample name : 	O02B2m						
Preparation : 	secco all'aria						
Sample mass (g) : 	1.111						
Sample density (g) : 	1.3						
Mercury height (mm) : 	61.387						
Vol. at run (mm3) : 	236						
Weight dilatometer+mercury+sample (g) : 	237.55						
Weight dil.+mercury+sample correct(g) : 	0						
Capillary mercury height (mm) : 	33.387						
Bulk D.calc. at 250 (kPa)-->Vol.(mm3): 	93.9584						
							
* * * Acquisition parameters	* * *						
Max pressure : 	2000						
Pump speed increase : 	2						
Pump speed decrease : 	1						
Pump speed inc. compensation : 	Pascal						
Pump speed dec. compensation : 	Pascal						
Dilatometer number : 	1						
Dilatometer type : 	Normal						
							
* * * Calculation parameters	* * *						
Conctact angle (Deg) : 	141.3						
Hg surface tension (Dyne/cm) : 	480						
Hg density (g/cm3) : 	13.5438						
Temperature Hg (°C): 	21						
Pores model : 	Cylindrical						
Sample volume correction : 	No						
Region start : 	0						
Region stop : 	10000000						
Region number of intervals : 	50						
Pores average mode : 	Range						
Particle size distribution : 	Yes						
Kp factor : 	11.7003						
Cut off radius : 	.001-10						
							
* * * Blank parameters	* * *						
Blank data file path : 	C:\POROSDIR\Pascal_2012\SIMONE_TESI\Poros_2000\Dil1new.por						
Blank name instrument : 	Porosimeter 2000						
Num. of blank data points increase : 	199						
Num. of blank data points decrease : 	157						
Filling volume (mm3) : 	458 (from blank file)						
Weight dilatometer (g) : 	42.215 (from blank file)						
Weight dilatometer+Hg (g) : 	245.15 (from blank file)						
Capillary radius (mm) : 	1.5 (from blank file)						
Dilatometer cone height (mm) : 	28 (from blank file)						
Hg density blank (g/cm3) : 	13.5438 (from blank file)						
Temperature Hg (°C): 	21						
							
							
R E S U L T S							
Total cumulative volume (mm3/g) : 	247.344696						
Total specific surface area (m²/g) : 	6.217000008						
Average pore radius (Micron) : 	29.3681736						
Total  porosity (%) : 	42.72570038						
Bulk density  (g/cm3) : 	1.727380037						
Bulk density (g/cm3) at 250 (kPa) : 	2.022890091						
Apparent density (g/cm3) : 	3.015969992						
Cut-Off radius range (Micron) :  : -------	.001-10						
Total pore volume (mm3/g) : 	0						
Pore specific surface area (m²/g) : 	0						
Cumulative volume [Cut-Off] (mm3/g) : 	247.344696						
							
P O R E   S I Z E   D I S T R I B U T I O N (custom ranges)							
Pore radius ranges	Specific Volume	Relative Volume	Relative Volume				
(µM)	(mm3/g)	(mm3/g)	(%)				
10000-1000	0.000	0.000	0.000				
1000-100	0.000	0.000	0.000				
100-10	69.220	69.220	27.980				
10-1	111.700	42.480	17.180				
1-.1	198.650	86.950	35.150				
.1-.01	239.150	40.500	16.380				
.01-.001	247.340	8.190	3.310				
							
P A R T I C L E   S I Z E   D I S T R I B U T I O N							
Particle diameter range	Cum. Distr. Vol.	Rel. Distr. Vol.	Cumulative Area				
(µM)	(%)	(%)	(m²/g)				
15-10	6.920	6.920	0.024				
10-8	11.520	4.600	0.046				
8-5	21.830	10.310	0.116				
5-3.5	30.470	8.640	0.205				
3.5-2.5	38.000	7.530	0.313				
2.5-1.85	44.920	6.920	0.448				
1.85-1.5	49.120	4.190	0.555				
1.5-1.2	52.800	3.690	0.671				
1.2-1.05	54.670	1.870	0.740				
1.05-.9	57.150	2.480	0.847				
.9-.75	59.730	2.580	0.978				
.75-.6	62.410	2.680	1.146				
.6-.5	64.330	1.920	1.293				
.5-.35	67.760	3.440	1.637				
.35-.25	70.590	2.830	2.042				
.25-.2	72.360	1.770	2.373				
.2-.15	74.080	1.720	2.789				
.15-.1	76.860	2.780	3.751				
.1-.08	77.820	0.960	4.207				
.08-.05	79.080	1.260	5.044				
.05-.02	80.340	1.260	6.183				
.02-.01	80.340	0.000	6.183				
.01-0	80.340	0.000	6.183				
							
D A T A   R E P O R T							
Pressure	Volume	Radius	Spec.Vol.	Rel.Vol.			
(MPa)	(mm3)	(µm)	(mm3/g)	(mm3/g)			
0.008	0.600	88.905	0.540	0.540			
0.009	0.700	87.882	0.630	0.090			
0.009	0.900	85.906	0.810	0.180			
0.009	1.000	84.950	0.900	0.090			
0.009	1.100	84.016	0.990	0.090			
0.009	1.300	83.120	1.170	0.180			
0.009	1.500	82.243	1.350	0.180			
0.009	1.800	80.526	1.620	0.270			
0.009	2.100	79.718	1.890	0.270			
0.009	2.200	78.895	1.980	0.090			
0.010	2.500	77.314	2.250	0.270			
0.010	2.600	76.539	2.340	0.090			
0.010	2.800	75.794	2.520	0.180			
0.010	2.900	75.050	2.610	0.090			
0.010	3.100	74.334	2.790	0.180			
0.010	3.200	73.617	2.880	0.090			
0.010	3.400	72.928	3.060	0.180			
0.010	3.800	72.279	3.420	0.360			
0.010	4.000	71.615	3.600	0.180			
0.011	4.100	70.949	3.690	0.090			
0.011	4.400	70.322	3.960	0.270			
0.011	5.200	69.768	4.680	0.720			
0.011	5.500	69.161	4.950	0.270			
0.011	5.700	68.552	5.130	0.180			
0.011	5.900	67.955	5.310	0.180			
0.011	6.000	67.355	5.400	0.090			
0.011	6.200	66.188	5.580	0.180			
0.011	6.400	65.631	5.760	0.180			
0.012	6.500	65.072	5.850	0.090			
0.012	6.800	64.543	6.120	0.270			
0.012	7.000	64.013	6.300	0.180			
0.012	7.100	63.481	6.390	0.090			
0.012	7.200	62.958	6.480	0.090			
0.012	7.300	62.443	6.570	0.090			
0.012	7.500	61.947	6.750	0.180			
0.012	7.900	61.478	7.110	0.360			
0.012	8.100	60.504	7.290	0.180			
0.013	8.600	60.065	7.740	0.450			
0.013	9.000	59.624	8.100	0.360			
0.013	9.300	59.180	8.370	0.270			
0.013	9.400	58.725	8.460	0.090			
0.013	9.500	58.277	8.550	0.090			
0.013	9.600	57.836	8.640	0.090			
0.013	9.900	57.418	8.910	0.270			
0.013	10.000	56.560	9.000	0.090			
0.013	10.200	56.152	9.180	0.180			
0.013	10.500	55.758	9.450	0.270			
0.014	10.800	54.964	9.720	0.270			
0.014	11.000	54.579	9.900	0.180			
0.014	11.600	53.840	10.440	0.540			
0.014	11.800	53.470	10.620	0.180			
0.014	12.000	53.106	10.800	0.180			
0.014	12.400	52.761	11.160	0.360			
0.014	12.600	52.406	11.340	0.180			
0.014	12.900	51.703	11.610	0.270			
0.015	13.200	51.369	11.880	0.270			
0.015	13.500	51.039	12.150	0.270			
0.015	13.700	50.366	12.330	0.180			
0.015	13.900	50.043	12.510	0.180			
0.015	14.000	49.717	12.600	0.090			
0.015	14.200	49.402	12.780	0.180			
0.015	14.400	49.091	12.960	0.180			
0.015	14.500	48.777	13.050	0.090			
0.015	14.600	48.468	13.140	0.090			
0.016	14.700	48.162	13.230	0.090			
0.016	14.800	47.861	13.320	0.090			
0.016	15.000	47.568	13.500	0.180			
0.016	15.300	47.285	13.770	0.270			
0.016	15.600	47.006	14.040	0.270			
0.016	15.800	46.434	14.220	0.180			
0.016	16.000	46.159	14.400	0.180			
0.016	16.300	45.893	14.670	0.270			
0.016	16.400	45.619	14.760	0.090			
0.016	16.700	45.359	15.030	0.270			
0.017	17.100	45.107	15.390	0.360			
0.017	17.600	44.862	15.840	0.450			
0.017	17.900	44.611	16.110	0.270			
0.017	18.000	44.352	16.200	0.090			
0.017	18.100	44.096	16.290	0.090			
0.017	18.300	43.847	16.470	0.180			
0.017	18.400	43.597	16.560	0.090			
0.017	18.600	43.355	16.740	0.180			
0.017	18.900	43.120	17.010	0.270			
0.018	19.000	42.877	17.100	0.090			
0.018	19.100	42.638	17.190	0.090			
0.018	19.500	42.415	17.550	0.360			
0.018	19.700	42.186	17.730	0.180			
0.018	19.800	41.954	17.820	0.090			
0.018	20.500	41.520	18.450	0.630			
0.018	20.800	41.305	18.720	0.270			
0.018	21.000	41.087	18.900	0.180			
0.018	21.200	40.871	19.080	0.180			
0.019	21.300	40.434	19.170	0.090			
0.019	21.600	40.230	19.440	0.270			
0.019	21.900	40.027	19.710	0.270			
0.019	22.100	39.823	19.890	0.180			
0.019	22.300	39.620	20.070	0.180			
0.019	22.500	39.420	20.250	0.180			
0.019	22.700	39.221	20.430	0.180			
0.019	22.900	38.823	20.610	0.180			
0.019	23.000	38.626	20.700	0.090			
0.020	23.200	38.436	20.880	0.180			
0.020	23.700	38.258	21.330	0.450			
0.020	23.900	37.879	21.510	0.180			
0.020	24.100	37.696	21.690	0.180			
0.020	24.400	37.518	21.960	0.270			
0.020	24.700	37.156	22.230	0.270			
0.020	25.200	36.809	22.680	0.450			
0.020	25.600	36.643	23.040	0.360			
0.021	25.800	36.471	23.220	0.180			
0.021	26.000	36.301	23.400	0.180			
0.021	26.800	36.153	24.120	0.720			
0.021	26.900	35.983	24.210	0.090			
0.021	27.100	35.817	24.390	0.180			
0.021	27.200	35.650	24.480	0.090			
0.021	27.900	35.504	25.110	0.630			
0.021	28.100	35.343	25.290	0.180			
0.021	28.300	35.183	25.470	0.180			
0.021	28.400	35.022	25.560	0.090			
0.022	29.000	34.878	26.100	0.540			
0.022	29.200	34.722	26.280	0.180			
0.022	29.300	34.565	26.370	0.090			
0.022	29.400	34.410	26.460	0.090			
0.022	29.700	34.261	26.730	0.270			
0.022	29.900	34.111	26.910	0.180			
0.022	30.100	33.963	27.090	0.180			
0.022	30.300	33.815	27.270	0.180			
0.022	30.500	33.669	27.450	0.180			
0.022	30.800	33.527	27.720	0.270			
0.022	30.900	33.381	27.810	0.090			
0.023	31.100	33.238	27.990	0.180			
0.023	31.300	33.097	28.170	0.180			
0.023	31.500	32.813	28.350	0.180			
0.023	31.700	32.675	28.530	0.180			
0.023	31.900	32.539	28.710	0.180			
0.023	32.200	32.406	28.980	0.270			
0.023	32.300	32.269	29.070	0.090			
0.023	32.400	32.133	29.160	0.090			
0.023	32.900	32.009	29.610	0.450			
0.024	33.200	31.746	29.880	0.270			
0.024	33.400	31.617	30.060	0.180			
0.024	33.500	31.487	30.150	0.090			
0.024	33.800	31.363	30.420	0.270			
0.024	33.900	31.234	30.510	0.090			
0.024	34.300	31.115	30.870	0.360			
0.024	35.000	31.003	31.500	0.630			
0.024	35.500	30.888	31.950	0.450			
0.024	35.600	30.763	32.040	0.090			
0.024	35.800	30.642	32.220	0.180			
0.024	36.100	30.525	32.490	0.270			
0.025	36.300	30.405	32.670	0.180			
0.025	36.500	30.165	32.850	0.180			
0.025	36.700	30.049	33.030	0.180			
0.025	36.800	29.931	33.120	0.090			
0.025	37.000	29.817	33.300	0.180			
0.025	37.300	29.705	33.570	0.270			
0.025	37.700	29.597	33.930	0.360			
0.025	37.800	29.483	34.020	0.090			
0.026	38.000	29.257	34.200	0.180			
0.026	38.200	29.035	34.380	0.180			
0.026	38.600	28.931	34.740	0.360			
0.026	39.000	28.828	35.100	0.360			
0.026	39.200	28.722	35.280	0.180			
0.026	39.400	28.617	35.460	0.180			
0.026	39.600	28.512	35.640	0.180			
0.026	39.800	28.408	35.820	0.180			
0.026	39.900	28.303	35.910	0.090			
0.027	40.000	28.198	36.000	0.090			
0.027	40.100	27.989	36.090	0.090			
0.027	40.400	27.891	36.360	0.270			
0.027	40.500	27.790	36.450	0.090			
0.027	40.600	27.689	36.540	0.090			
0.027	40.900	27.593	36.810	0.270			
0.027	41.200	27.498	37.080	0.270			
0.027	41.300	27.399	37.170	0.090			
0.027	41.500	27.303	37.350	0.180			
0.027	41.700	27.208	37.530	0.180			
0.028	41.900	27.113	37.710	0.180			
0.028	42.200	26.924	37.980	0.270			
0.028	42.400	26.831	38.160	0.180			
0.028	42.500	26.737	38.250	0.090			
0.028	42.600	26.644	38.340	0.090			
0.028	42.900	26.555	38.610	0.270			
0.028	43.000	26.463	38.700	0.090			
0.028	43.200	26.373	38.880	0.180			
0.029	43.500	26.194	39.150	0.270			
0.029	43.800	26.108	39.420	0.270			
0.029	43.900	26.019	39.510	0.090			
0.029	44.100	25.933	39.690	0.180			
0.029	44.200	25.756	39.780	0.090			
0.029	44.500	25.585	40.050	0.270			
0.029	44.800	25.503	40.320	0.270			
0.030	44.900	25.418	40.410	0.090			
0.030	45.000	25.334	40.500	0.090			
0.030	45.100	25.250	40.590	0.090			
0.030	45.200	25.167	40.680	0.090			
0.030	45.500	25.004	40.950	0.270			
0.030	45.700	24.924	41.130	0.180			
0.030	45.800	24.843	41.220	0.090			
0.030	46.000	24.764	41.400	0.180			
0.030	46.100	24.684	41.490	0.090			
0.031	46.200	24.604	41.580	0.090			
0.031	46.400	24.527	41.760	0.180			
0.031	46.700	24.372	42.030	0.270			
0.031	46.900	24.296	42.210	0.180			
0.031	47.000	24.141	42.300	0.090			
0.031	47.100	24.065	42.390	0.090			
0.031	47.300	23.991	42.570	0.180			
0.031	47.400	23.916	42.660	0.090			
0.031	47.500	23.841	42.750	0.090			
0.032	47.600	23.767	42.840	0.090			
0.032	47.700	23.618	42.930	0.090			
0.032	48.000	23.548	43.200	0.270			
0.032	48.100	23.476	43.290	0.090			
0.032	48.300	23.333	43.470	0.180			
0.032	48.600	23.264	43.740	0.270			
0.032	48.700	23.194	43.830	0.090			
0.032	49.100	23.057	44.190	0.360			
0.033	49.200	22.987	44.280	0.090			
0.033	49.300	22.918	44.370	0.090			
0.033	49.400	22.850	44.460	0.090			
0.033	49.600	22.783	44.640	0.180			
0.033	49.700	22.715	44.730	0.090			
0.033	49.800	22.648	44.820	0.090			
0.033	49.900	22.581	44.910	0.090			
0.033	50.100	22.516	45.090	0.180			
0.033	50.200	22.449	45.180	0.090			
0.034	50.400	22.318	45.360	0.180			
0.034	50.700	22.190	45.630	0.270			
0.034	51.000	22.128	45.900	0.270			
0.034	51.100	22.064	45.990	0.090			
0.034	51.200	22.001	46.080	0.090			
0.034	51.300	21.937	46.170	0.090			
0.034	51.400	21.875	46.260	0.090			
0.034	51.600	21.813	46.440	0.180			
0.034	51.700	21.751	46.530	0.090			
0.034	51.800	21.689	46.620	0.090			
0.035	51.900	21.566	46.710	0.090			
0.035	52.000	21.505	46.800	0.090			
0.035	52.100	21.445	46.890	0.090			
0.035	52.200	21.385	46.980	0.090			
0.035	52.400	21.326	47.160	0.180			
0.035	52.500	21.267	47.250	0.090			
0.035	52.600	21.208	47.340	0.090			
0.035	52.700	21.149	47.430	0.090			
0.036	52.800	21.091	47.520	0.090			
0.036	52.900	21.033	47.610	0.090			
0.036	53.100	20.976	47.790	0.180			
0.036	53.200	20.919	47.880	0.090			
0.036	53.300	20.861	47.970	0.090			
0.036	53.400	20.805	48.060	0.090			
0.036	53.500	20.748	48.150	0.090			
0.036	53.600	20.692	48.240	0.090			
0.036	53.800	20.637	48.420	0.180			
0.036	53.900	20.581	48.510	0.090			
0.037	54.000	20.470	48.600	0.090			
0.037	54.300	20.418	48.870	0.270			
0.037	54.500	20.364	49.050	0.180			
0.037	54.700	20.311	49.230	0.180			
0.037	55.000	20.259	49.500	0.270			
0.037	55.200	20.207	49.680	0.180			
0.037	55.300	20.153	49.770	0.090			
0.037	55.500	20.101	49.950	0.180			
0.037	55.600	20.049	50.050	0.090			
0.038	55.700	19.943	50.140	0.090			
0.038	55.800	19.891	50.230	0.090			
0.038	56.000	19.840	50.410	0.180			
0.038	56.100	19.789	50.500	0.090			
0.038	56.300	19.687	50.680	0.180			
0.038	56.400	19.636	50.770	0.090			
0.038	56.500	19.586	50.860	0.090			
0.038	56.600	19.536	50.950	0.090			
0.038	56.700	19.486	51.040	0.090			
0.038	56.800	19.437	51.130	0.090			
0.039	57.000	19.338	51.310	0.180			
0.039	57.300	19.291	51.580	0.270			
0.039	57.400	19.243	51.670	0.090			
0.039	57.500	19.194	51.760	0.090			
0.039	57.600	19.146	51.850	0.090			
0.039	57.700	19.098	51.940	0.090			
0.039	57.800	19.051	52.030	0.090			
0.040	58.000	18.956	52.210	0.180			
0.040	58.100	18.909	52.300	0.090			
0.040	58.200	18.863	52.390	0.090			
0.040	58.400	18.817	52.570	0.180			
0.040	58.500	18.677	52.660	0.090			
0.040	58.800	18.633	52.930	0.270			
0.040	58.900	18.588	53.020	0.090			
0.040	59.000	18.543	53.110	0.090			
0.041	59.100	18.498	53.200	0.090			
0.041	59.200	18.408	53.290	0.090			
0.041	59.300	18.319	53.380	0.090			
0.041	59.500	18.276	53.560	0.180			
0.041	59.600	18.188	53.650	0.090			
0.041	59.700	18.145	53.740	0.090			
0.041	59.800	18.102	53.830	0.090			
0.042	59.900	18.016	53.920	0.090			
0.042	60.000	17.973	54.010	0.090			
0.042	60.100	17.931	54.100	0.090			
0.042	60.200	17.846	54.190	0.090			
0.042	60.300	17.805	54.280	0.090			
0.042	60.500	17.764	54.460	0.180			
0.042	60.600	17.723	54.550	0.090			
0.042	60.700	17.682	54.640	0.090			
0.043	60.800	17.641	54.730	0.090			
0.043	60.900	17.600	54.820	0.090			
0.043	61.000	17.519	54.910	0.090			
0.043	61.100	17.479	55.000	0.090			
0.043	61.200	17.439	55.090	0.090			
0.043	61.300	17.359	55.180	0.090			
0.043	61.400	17.320	55.270	0.090			
0.043	61.500	17.241	55.360	0.090			
0.044	61.600	17.162	55.450	0.090			
0.044	61.700	17.124	55.540	0.090			
0.044	61.800	17.086	55.630	0.090			
0.044	61.900	17.009	55.720	0.090			
0.044	62.000	16.971	55.810	0.090			
0.044	62.100	16.895	55.900	0.090			
0.044	62.200	16.858	55.990	0.090			
0.045	62.300	16.821	56.080	0.090			
0.045	62.400	16.746	56.170	0.090			
0.045	62.600	16.710	56.350	0.180			
0.045	62.700	16.674	56.440	0.090			
0.045	62.800	16.601	56.530	0.090			
0.045	62.900	16.565	56.620	0.090			
0.045	63.000	16.529	56.710	0.090			
0.045	63.100	16.457	56.800	0.090			
0.046	63.400	16.387	57.070	0.270			
0.046	63.600	16.353	57.250	0.180			
0.046	63.700	16.282	57.340	0.090			
0.046	63.800	16.248	57.430	0.090			
0.046	63.900	16.213	57.520	0.090			
0.046	64.100	16.180	57.700	0.180			
0.046	64.200	16.145	57.790	0.090			
0.047	64.300	16.077	57.880	0.090			
0.047	64.400	16.043	57.970	0.090			
0.047	64.500	15.975	58.060	0.090			
0.047	64.700	15.875	58.240	0.180			
0.047	64.800	15.809	58.330	0.090			
0.048	64.900	15.710	58.420	0.090			
0.048	65.000	15.645	58.510	0.090			
0.048	65.100	15.613	58.600	0.090			
0.048	65.200	15.581	58.690	0.090			
0.048	65.300	15.549	58.780	0.090			
0.048	65.400	15.486	58.870	0.090			
0.049	65.500	15.454	58.960	0.090			
0.049	65.600	15.423	59.050	0.090			
0.049	65.700	15.360	59.140	0.090			
0.049	65.800	15.298	59.230	0.090			
0.049	65.900	15.268	59.320	0.090			
0.049	66.000	15.237	59.410	0.090			
0.049	66.100	15.176	59.500	0.090			
0.050	66.200	15.085	59.590	0.090			
0.050	66.300	15.055	59.680	0.090			
0.050	66.400	14.996	59.770	0.090			
0.050	66.500	14.936	59.860	0.090			
0.050	66.600	14.907	59.950	0.090			
0.050	66.700	14.878	60.040	0.090			
0.051	66.800	14.820	60.130	0.090			
0.051	66.900	14.791	60.220	0.090			
0.051	67.000	14.734	60.310	0.090			
0.051	67.100	14.676	60.400	0.090			
0.051	67.200	14.620	60.490	0.090			
0.051	67.300	14.592	60.580	0.090			
0.052	67.400	14.536	60.670	0.090			
0.052	67.500	14.508	60.760	0.090			
0.052	67.600	14.481	60.850	0.090			
0.052	67.700	14.398	60.940	0.090			
0.052	67.800	14.343	61.030	0.090			
0.052	67.900	14.316	61.120	0.090			
0.052	68.000	14.289	61.210	0.090			
0.053	68.100	14.236	61.300	0.090			
0.053	68.200	14.182	61.390	0.090			
0.053	68.300	14.156	61.480	0.090			
0.053	68.400	14.103	61.570	0.090			
0.053	68.500	14.051	61.660	0.090			
0.054	68.600	13.999	61.750	0.090			
0.054	68.700	13.973	61.840	0.090			
0.054	68.800	13.870	61.930	0.090			
0.054	69.000	13.820	62.110	0.180			
0.054	69.100	13.770	62.200	0.090			
0.054	69.200	13.745	62.290	0.090			
0.055	69.300	13.695	62.380	0.090			
0.055	69.400	13.572	62.470	0.090			
0.055	69.500	13.523	62.560	0.090			
0.056	69.600	13.475	62.650	0.090			
0.056	69.700	13.427	62.740	0.090			
0.056	69.800	13.404	62.830	0.090			
0.056	69.900	13.356	62.920	0.090			
0.056	70.000	13.333	63.010	0.090			
0.056	70.100	13.286	63.100	0.090			
0.057	70.200	13.193	63.190	0.090			
0.057	70.300	13.147	63.280	0.090			
0.057	70.400	13.079	63.370	0.090			
0.058	70.500	13.034	63.460	0.090			
0.058	70.600	12.989	63.550	0.090			
0.058	70.700	12.944	63.640	0.090			
0.058	70.800	12.900	63.730	0.090			
0.058	70.900	12.834	63.820	0.090			
0.059	71.000	12.791	63.910	0.090			
0.059	71.100	12.748	64.000	0.090			
0.059	71.200	12.705	64.090	0.090			
0.059	71.300	12.663	64.180	0.090			
0.060	71.400	12.599	64.270	0.090			
0.060	71.500	12.557	64.360	0.090			
0.060	71.600	12.516	64.450	0.090			
0.060	71.700	12.454	64.540	0.090			
0.060	71.800	12.413	64.630	0.090			
0.061	71.900	12.372	64.720	0.090			
0.061	72.000	12.332	64.810	0.090			
0.061	72.100	12.312	64.900	0.090			
0.061	72.200	12.292	64.990	0.090			
0.061	72.300	12.212	65.080	0.090			
0.062	72.400	12.173	65.170	0.090			
0.062	72.500	12.134	65.260	0.090			
0.062	72.600	12.076	65.350	0.090			
0.062	72.700	12.037	65.440	0.090			
0.062	72.800	11.999	65.530	0.090			
0.063	72.900	11.961	65.620	0.090			
0.063	73.000	11.923	65.710	0.090			
0.063	73.100	11.886	65.800	0.090			
0.063	73.200	11.868	65.890	0.090			
0.064	73.300	11.793	65.980	0.090			
0.064	73.400	11.738	66.070	0.090			
0.064	73.500	11.684	66.160	0.090			
0.064	73.600	11.648	66.250	0.090			
0.065	73.700	11.576	66.340	0.090			
0.065	73.800	11.470	66.430	0.090			
0.066	73.900	11.418	66.520	0.090			
0.066	74.000	11.366	66.610	0.090			
0.066	74.100	11.315	66.700	0.090			
0.066	74.200	11.298	66.790	0.090			
0.067	74.300	11.265	66.880	0.090			
0.067	74.400	11.181	66.970	0.090			
0.067	74.500	11.148	67.060	0.090			
0.068	74.600	11.099	67.150	0.090			
0.068	74.700	11.066	67.240	0.090			
0.068	74.800	10.985	67.330	0.090			
0.068	74.900	10.954	67.420	0.090			
0.069	75.000	10.906	67.510	0.090			
0.069	75.100	10.859	67.600	0.090			
0.069	75.200	10.844	67.690	0.090			
0.069	75.300	10.797	67.780	0.090			
