Instrument type : Porosimeter 2000							
Sample name : O02C2m							
Filename : C:\POROSDIR\Pascal_2012\SIMONE_TESI\Combi_Simone\O02c2m_comb.Por							
Software version : 1.03B-3							
Date : 21/06/17							
* * * Sample information	* * *						
Company Name : 	Fisons Instruments SpA						
Operator : 	AB						
Date : 	08/03/2017						
Sample name : 	O02C2m						
Preparation : 	secco all'aria						
Sample mass (g) : 	.994						
Sample density (g) : 	1.3						
Mercury height (mm) : 	60.397						
Vol. at run (mm3) : 	229						
Weight dilatometer+mercury+sample (g) : 	238.96						
Weight dil.+mercury+sample correct(g) : 	0						
Capillary mercury height (mm) : 	32.397						
Bulk D.calc. at 250 (kPa)-->Vol.(mm3): 	41.1486						
							
* * * Acquisition parameters	* * *						
Max pressure : 	2000						
Pump speed increase : 	2						
Pump speed decrease : 	1						
Pump speed inc. compensation : 	Pascal						
Pump speed dec. compensation : 	Pascal						
Dilatometer number : 	1						
Dilatometer type : 	Normal						
							
* * * Calculation parameters	* * *						
Conctact angle (Deg) : 	141.3						
Hg surface tension (Dyne/cm) : 	480						
Hg density (g/cm3) : 	13.5438						
Temperature Hg (°C): 	21						
Pores model : 	Cylindrical						
Sample volume correction : 	No						
Region start : 	0						
Region stop : 	10000000						
Region number of intervals : 	50						
Pores average mode : 	Range						
Particle size distribution : 	Yes						
Kp factor : 	11.7003						
Cut off radius : 	.001-10						
							
* * * Blank parameters	* * *						
Blank data file path : 	C:\POROSDIR\Pascal_2012\SIMONE_TESI\Poros_2000\Dil1new.por						
Blank name instrument : 	Porosimeter 2000						
Num. of blank data points increase : 	199						
Num. of blank data points decrease : 	157						
Filling volume (mm3) : 	458 (from blank file)						
Weight dilatometer (g) : 	42.215 (from blank file)						
Weight dilatometer+Hg (g) : 	245.15 (from blank file)						
Capillary radius (mm) : 	1.5 (from blank file)						
Dilatometer cone height (mm) : 	28 (from blank file)						
Hg density blank (g/cm3) : 	13.5438 (from blank file)						
Temperature Hg (°C): 	21						
							
							
R E S U L T S							
Total cumulative volume (mm3/g) : 	223.4405975						
Total specific surface area (m²/g) : 	6.964000225						
Average pore radius (Micron) : 	0.5283100009						
Total  porosity (%) : 	41.87200165						
Bulk density  (g/cm3) : 	1.873960018						
Bulk density (g/cm3) at 250 (kPa) : 	2.031569958						
Apparent density (g/cm3) : 	3.223860025						
Cut-Off radius range (Micron) :  : -------	.001-10						
Total pore volume (mm3/g) : 	0						
Pore specific surface area (m²/g) : 	0						
Cumulative volume [Cut-Off] (mm3/g) : 	223.4405975						
							
P O R E   S I Z E   D I S T R I B U T I O N (custom ranges)							
Pore radius ranges	Specific Volume	Relative Volume	Relative Volume				
(µM)	(mm3/g)	(mm3/g)	(%)				
10000-1000	0.000	0.000	0.000				
1000-100	0.000	0.000	0.000				
100-10	34.510	34.510	15.440				
10-1	55.530	21.030	9.410				
1-.1	171.830	116.300	52.050				
.1-.01	213.980	42.150	18.870				
.01-.001	223.440	9.460	4.230				
							
P A R T I C L E   S I Z E   D I S T R I B U T I O N							
Particle diameter range	Cum. Distr. Vol.	Rel. Distr. Vol.	Cumulative Area				
(µM)	(%)	(%)	(m²/g)				
15-10	6.120	6.120	0.023				
10-8	11.820	5.700	0.052				
8-5	28.860	17.040	0.174				
5-3.5	41.800	12.940	0.314				
3.5-2.5	50.590	8.790	0.446				
2.5-1.85	57.030	6.440	0.579				
1.85-1.5	60.810	3.780	0.680				
1.5-1.2	64.270	3.460	0.796				
1.2-1.05	65.920	1.650	0.862				
1.05-.9	68.210	2.290	0.969				
.9-.75	70.290	2.080	1.082				
.75-.6	72.790	2.500	1.247				
.6-.5	74.920	2.130	1.419				
.5-.35	78.220	3.300	1.770				
.35-.25	80.670	2.450	2.144				
.25-.2	82.590	1.920	2.525				
.2-.15	85.200	2.610	3.195				
.15-.1	87.700	2.500	4.109				
.1-.08	88.600	0.910	4.582				
.08-.05	90.680	2.080	6.088				
.05-.02	91.590	0.910	6.948				
.02-.01	91.590	0.000	6.948				
.01-0	91.590	0.000	6.948				
							
D A T A   R E P O R T							
Pressure	Volume	Radius	Spec.Vol.	Rel.Vol.			
(MPa)	(mm3)	(µm)	(mm3/g)	(mm3/g)			
0.008	0.000	89.149	0.000	0.000			
0.009	0.100	88.120	0.100	0.100			
0.009	0.200	87.115	0.200	0.100			
0.009	0.400	85.173	0.400	0.200			
0.009	0.500	84.233	0.500	0.100			
0.009	0.600	83.315	0.600	0.100			
0.009	0.800	82.433	0.800	0.200			
0.009	0.900	81.553	0.910	0.100			
0.009	1.100	80.709	1.110	0.200			
0.009	1.300	79.881	1.310	0.200			
0.010	1.400	77.421	1.410	0.100			
0.010	1.600	76.659	1.610	0.200			
0.010	1.800	75.912	1.810	0.200			
0.010	1.900	75.165	1.910	0.100			
0.010	2.000	74.433	2.010	0.100			
0.010	2.100	73.714	2.110	0.100			
0.010	2.200	73.010	2.210	0.100			
0.010	2.300	72.319	2.310	0.100			
0.010	2.600	71.667	2.620	0.300			
0.011	2.800	70.347	2.820	0.200			
0.011	2.900	69.062	2.920	0.100			
0.011	3.100	68.456	3.120	0.200			
0.011	3.300	67.250	3.320	0.200			
0.011	3.700	66.698	3.720	0.400			
0.011	3.800	66.120	3.820	0.100			
0.012	4.100	65.006	4.120	0.300			
0.012	4.200	64.458	4.230	0.100			
0.012	4.400	63.929	4.430	0.200			
0.012	4.700	62.887	4.730	0.300			
0.012	5.000	61.878	5.030	0.300			
0.012	5.300	61.400	5.330	0.300			
0.012	5.400	60.910	5.430	0.100			
0.012	5.500	60.428	5.530	0.100			
0.013	5.600	59.954	5.630	0.100			
0.013	5.700	59.487	5.730	0.100			
0.013	5.900	59.037	5.940	0.200			
0.013	6.000	58.584	6.040	0.100			
0.013	6.300	58.155	6.340	0.300			
0.013	6.400	57.716	6.440	0.100			
0.013	6.500	57.283	6.540	0.100			
0.013	6.600	56.857	6.640	0.100			
0.013	6.800	56.445	6.840	0.200			
0.013	6.900	56.031	6.940	0.100			
0.014	7.000	55.623	7.040	0.100			
0.014	7.200	55.229	7.240	0.200			
0.014	7.400	54.840	7.440	0.200			
0.014	7.500	54.449	7.550	0.100			
0.014	7.600	54.064	7.650	0.100			
0.014	7.700	53.684	7.750	0.100			
0.014	8.300	53.346	8.350	0.600			
0.014	9.400	52.675	9.460	1.110			
0.014	10.400	52.377	10.460	1.010			
0.014	10.600	52.028	10.660	0.200			
0.014	10.700	51.676	10.760	0.100			
0.015	10.800	51.328	10.870	0.100			
0.015	10.900	50.986	10.970	0.100			
0.015	11.100	50.654	11.170	0.200			
0.015	11.300	50.327	11.370	0.200			
0.015	11.400	49.666	11.470	0.100			
0.015	11.600	49.352	11.670	0.200			
0.015	12.100	49.060	12.170	0.500			
0.015	12.900	48.789	12.980	0.800			
0.015	13.000	48.480	13.080	0.100			
0.016	13.100	47.866	13.180	0.100			
0.016	13.200	47.568	13.280	0.100			
0.016	13.400	47.280	13.480	0.200			
0.016	13.600	46.994	13.680	0.200			
0.016	13.700	46.707	13.780	0.100			
0.016	13.900	46.429	13.980	0.200			
0.016	14.100	46.154	14.190	0.200			
0.016	14.300	45.882	14.390	0.200			
0.016	14.500	45.613	14.590	0.200			
0.016	14.600	45.343	14.690	0.100			
0.017	14.700	45.075	14.790	0.100			
0.017	14.800	44.811	14.890	0.100			
0.017	14.900	44.286	14.990	0.100			
0.017	15.000	43.773	15.090	0.100			
0.017	15.100	43.524	15.190	0.100			
0.017	15.300	43.034	15.390	0.200			
0.018	15.400	42.793	15.490	0.100			
0.018	15.500	42.554	15.590	0.100			
0.018	15.600	41.846	15.690	0.100			
0.018	15.700	41.618	15.790	0.100			
0.018	15.800	41.392	15.900	0.100			
0.018	16.000	41.174	16.100	0.200			
0.018	16.100	40.953	16.200	0.100			
0.018	16.300	40.739	16.400	0.200			
0.019	16.400	40.523	16.500	0.100			
0.019	16.500	40.309	16.600	0.100			
0.019	16.600	40.097	16.700	0.100			
0.019	16.700	39.888	16.800	0.100			
0.019	16.800	39.265	16.900	0.100			
0.019	16.900	39.064	17.000	0.100			
0.019	17.000	38.665	17.100	0.100			
0.020	17.200	38.474	17.300	0.200			
0.020	17.400	38.090	17.510	0.200			
0.020	17.500	37.901	17.610	0.100			
0.020	17.600	37.525	17.710	0.100			
0.020	17.700	37.156	17.810	0.100			
0.020	17.800	36.977	17.910	0.100			
0.020	17.900	36.798	18.010	0.100			
0.021	18.000	36.622	18.110	0.100			
0.021	18.100	36.447	18.210	0.100			
0.021	18.300	36.278	18.410	0.200			
0.021	18.600	36.113	18.710	0.300			
0.021	19.100	35.956	19.220	0.500			
0.021	19.300	35.791	19.420	0.200			
0.021	19.500	35.627	19.620	0.200			
0.021	19.600	35.295	19.720	0.100			
0.021	19.700	35.133	19.820	0.100			
0.021	19.800	34.972	19.920	0.100			
0.022	20.000	34.815	20.120	0.200			
0.022	20.100	34.657	20.220	0.100			
0.022	20.200	34.343	20.320	0.100			
0.022	20.300	34.189	20.420	0.100			
0.022	20.400	34.037	20.520	0.100			
0.022	20.500	33.886	20.620	0.100			
0.022	20.600	33.736	20.720	0.100			
0.023	20.800	33.292	20.930	0.200			
0.023	20.900	33.148	21.030	0.100			
0.023	21.000	32.860	21.130	0.100			
0.023	21.100	32.719	21.230	0.100			
0.023	21.200	32.579	21.330	0.100			
0.023	21.300	32.163	21.430	0.100			
0.023	21.400	32.028	21.530	0.100			
0.023	21.500	31.894	21.630	0.100			
0.024	21.600	31.627	21.730	0.100			
0.024	21.700	31.497	21.830	0.100			
0.024	21.800	31.237	21.930	0.100			
0.024	21.900	31.110	22.030	0.100			
0.024	22.000	30.856	22.130	0.100			
0.025	22.100	30.358	22.230	0.100			
0.025	22.200	30.116	22.330	0.100			
0.025	22.300	29.998	22.430	0.100			
0.025	22.400	29.762	22.540	0.100			
0.025	22.500	29.530	22.640	0.100			
0.026	22.600	29.301	22.740	0.100			
0.026	22.700	29.076	22.840	0.100			
0.026	22.800	28.854	22.940	0.100			
0.026	22.900	28.635	23.040	0.100			
0.026	23.000	28.313	23.140	0.100			
0.027	23.100	28.208	23.240	0.100			
0.027	23.200	28.105	23.340	0.100			
0.027	23.800	28.012	23.940	0.600			
0.027	24.000	27.911	24.140	0.200			
0.027	24.100	27.707	24.250	0.100			
0.027	24.200	27.607	24.350	0.100			
0.027	24.300	27.507	24.450	0.100			
0.028	24.400	27.111	24.550	0.100			
0.028	24.500	26.822	24.650	0.100			
0.028	24.600	26.728	24.750	0.100			
0.028	24.700	26.635	24.850	0.100			
0.028	24.800	26.355	24.950	0.100			
0.029	24.900	26.265	25.050	0.100			
0.029	25.000	26.084	25.150	0.100			
0.029	25.100	25.639	25.250	0.100			
0.029	25.200	25.466	25.350	0.100			
0.030	25.300	25.382	25.450	0.100			
0.030	25.400	25.213	25.550	0.100			
0.030	25.500	25.046	25.650	0.100			
0.030	25.600	24.717	25.750	0.100			
0.031	25.800	24.558	25.960	0.200			
0.031	25.900	24.399	26.060	0.100			
0.031	26.000	24.322	26.160	0.100			
0.031	26.200	24.246	26.360	0.200			
0.031	26.300	24.092	26.460	0.100			
0.032	26.400	23.787	26.560	0.100			
0.032	26.500	23.713	26.660	0.100			
0.032	26.600	23.640	26.760	0.100			
0.032	26.700	23.567	26.860	0.100			
0.032	26.900	23.350	27.060	0.200			
0.032	27.000	23.278	27.160	0.100			
0.032	27.100	23.136	27.260	0.100			
0.033	27.200	22.716	27.360	0.100			
0.033	27.300	22.513	27.460	0.100			
0.033	27.400	22.447	27.570	0.100			
0.034	27.500	22.248	27.670	0.100			
0.034	27.600	22.053	27.770	0.100			
0.035	27.700	21.671	27.870	0.100			
0.035	27.900	21.549	28.070	0.200			
0.035	28.000	21.185	28.170	0.100			
0.036	28.100	21.008	28.270	0.100			
0.036	28.200	20.776	28.370	0.100			
0.036	28.300	20.662	28.470	0.100			
0.036	28.400	20.550	28.570	0.100			
0.037	28.500	20.273	28.670	0.100			
0.037	28.600	20.111	28.770	0.100			
0.038	28.700	19.951	28.870	0.100			
0.038	28.800	19.899	28.970	0.100			
0.038	28.900	19.795	29.070	0.100			
0.038	29.000	19.640	29.180	0.100			
0.038	29.100	19.488	29.280	0.100			
0.039	29.200	19.288	29.380	0.100			
0.039	29.300	19.093	29.480	0.100			
0.040	29.400	18.853	29.580	0.100			
0.040	29.500	18.666	29.680	0.100			
0.040	29.600	18.529	29.780	0.100			
0.041	29.700	18.303	29.880	0.100			
0.041	29.800	18.171	29.980	0.100			
0.042	30.000	17.869	30.180	0.200			
0.042	30.100	17.701	30.280	0.100			
0.043	30.200	17.293	30.380	0.100			
0.043	30.300	17.215	30.480	0.100			
0.044	30.400	17.098	30.580	0.100			
0.044	30.500	16.944	30.680	0.100			
0.045	30.600	16.755	30.780	0.100			
0.045	30.700	16.570	30.890	0.100			
0.046	30.800	16.318	30.990	0.100			
0.046	30.900	16.143	31.090	0.100			
0.047	31.000	16.006	31.190	0.100			
0.047	31.100	15.871	31.290	0.100			
0.048	31.200	15.705	31.390	0.100			
0.048	31.300	15.479	31.490	0.100			
0.049	31.400	15.321	31.590	0.100			
0.050	31.500	14.955	31.690	0.100			
0.051	31.600	14.749	31.790	0.100			
0.051	31.700	14.663	31.890	0.100			
0.052	31.800	14.550	31.990	0.100			
0.052	31.900	14.355	32.090	0.100			
0.053	32.100	14.034	32.290	0.200			
0.054	32.200	13.878	32.390	0.100			
0.055	32.300	13.528	32.490	0.100			
0.056	32.400	13.407	32.600	0.100			
0.056	32.500	13.265	32.700	0.100			
0.057	32.600	13.149	32.800	0.100			
0.058	32.700	13.013	32.900	0.100			
0.059	32.800	12.661	33.000	0.100			
0.060	32.900	12.493	33.100	0.100			
0.061	33.000	12.308	33.200	0.100			
0.062	33.100	12.130	33.300	0.100			
0.062	33.200	12.071	33.400	0.100			
0.064	33.300	11.713	33.500	0.100			
0.065	33.400	11.551	33.600	0.100			
0.066	33.500	11.428	33.700	0.100			
0.066	33.600	11.290	33.800	0.100			
0.067	33.700	11.156	33.900	0.100			
0.069	33.800	10.929	34.000	0.100			
0.069	33.900	10.787	34.100	0.100			
0.070	34.000	10.665	34.210	0.100			
0.071	34.100	10.501	34.310	0.100			
0.072	34.200	10.385	34.410	0.100			
0.073	34.300	10.257	34.510	0.100			
0.075	34.400	9.944	34.610	0.100			
0.077	34.500	9.776	34.710	0.100			
0.078	34.600	9.638	34.810	0.100			
0.079	34.700	9.503	34.910	0.100			
0.080	34.800	9.349	35.010	0.100			
0.083	34.900	9.078	35.110	0.100			
0.083	35.000	8.969	35.210	0.100			
0.085	35.100	8.853	35.310	0.100			
0.086	35.200	8.709	35.410	0.100			
0.088	35.300	8.550	35.510	0.100			
0.089	35.400	8.425	35.610	0.100			
0.090	35.500	8.304	35.710	0.100			
0.092	35.600	8.169	35.810	0.100			
0.093	35.700	8.029	35.920	0.100			
0.096	35.800	7.819	36.020	0.100			
0.097	35.900	7.707	36.120	0.100			
0.099	36.000	7.598	36.220	0.100			
0.100	36.100	7.491	36.320	0.100			
0.101	36.200	7.410	36.420	0.100			
0.103	36.300	7.259	36.520	0.100			
0.105	36.400	7.156	36.620	0.100			
0.106	36.500	7.061	36.720	0.100			
0.107	36.600	7.015	36.820	0.100			
0.109	36.700	6.848	36.920	0.100			
0.111	36.800	6.744	37.020	0.100			
0.113	36.900	6.642	37.120	0.100			
0.115	37.000	6.538	37.220	0.100			
0.117	37.100	6.421	37.320	0.100			
0.120	37.100	6.218	37.320	0.000			
0.122	37.300	6.127	37.530	0.200			
0.126	37.400	5.923	37.630	0.100			
0.129	37.500	5.813	37.730	0.100			
0.131	37.600	5.724	37.830	0.100			
0.133	37.700	5.617	37.930	0.100			
0.136	37.800	5.514	38.030	0.100			
0.141	37.800	5.330	38.030	0.000			
0.143	37.900	5.248	38.130	0.100			
0.145	38.000	5.168	38.230	0.100			
0.147	38.100	5.084	38.330	0.100			
0.151	38.200	4.966	38.430	0.100			
0.153	38.300	4.885	38.530	0.100			
0.155	38.400	4.822	38.630	0.100			
0.158	38.400	4.752	38.630	0.000			
0.161	38.500	4.655	38.730	0.100			
0.166	38.600	4.506	38.830	0.100			
0.169	38.700	4.445	38.930	0.100			
0.171	38.800	4.380	39.030	0.100			
0.174	38.900	4.312	39.130	0.100			
0.177	39.000	4.241	39.240	0.100			
0.182	39.200	4.127	39.440	0.200			
0.186	39.300	4.025	39.540	0.100			
0.189	39.400	3.967	39.640	0.100			
0.191	39.500	3.926	39.740	0.100			
0.194	39.600	3.867	39.840	0.100			
0.196	39.700	3.820	39.940	0.100			
0.203	39.800	3.699	40.040	0.100			
0.206	39.900	3.643	40.140	0.100			
0.209	40.000	3.586	40.240	0.100			
0.212	40.100	3.529	40.340	0.100			
0.215	40.200	3.481	40.440	0.100			
0.220	40.300	3.410	40.540	0.100			
0.222	40.400	3.367	40.640	0.100			
0.226	40.500	3.312	40.740	0.100			
0.230	40.500	3.261	40.740	0.000			
0.233	40.600	3.219	40.850	0.100			
0.239	40.700	3.133	40.950	0.100			
0.242	40.800	3.091	41.050	0.100			
0.246	40.900	3.045	41.150	0.100			
0.247	41.000	3.036	41.250	0.100			
0.251	41.200	2.984	41.450	0.200			
0.252	41.300	2.970	41.550	0.100			
0.257	41.400	2.914	41.650	0.100			
0.258	41.600	2.903	41.850	0.200			
0.298	41.800	2.513	42.050	0.200			
0.318	41.900	2.355	42.150	0.100			
0.328	42.100	2.283	42.350	0.200			
0.338	42.300	2.216	42.560	0.200			
0.358	42.700	2.092	42.960	0.400			
0.368	43.100	2.035	43.360	0.400			
0.378	43.300	1.982	43.560	0.200			
0.388	43.500	1.931	43.760	0.200			
0.398	43.900	1.882	44.160	0.400			
0.408	44.100	1.836	44.370	0.200			
0.418	44.300	1.792	44.570	0.200			
0.428	44.500	1.750	44.770	0.200			
0.438	44.700	1.710	44.970	0.200			
0.448	45.100	1.672	45.370	0.400			
0.458	45.300	1.636	45.570	0.200			
0.468	45.500	1.601	45.770	0.200			
0.488	45.900	1.535	46.180	0.400			
0.498	46.300	1.504	46.580	0.400			
0.508	46.500	1.475	46.780	0.200			
0.518	47.100	1.446	47.380	0.600			
0.528	47.300	1.419	47.590	0.200			
0.538	47.900	1.393	48.190	0.600			
0.558	48.500	1.343	48.790	0.600			
0.568	48.900	1.319	49.200	0.400			
0.578	49.100	1.296	49.400	0.200			
0.598	50.100	1.253	50.400	1.010			
0.618	50.500	1.212	50.800	0.400			
0.628	50.600	1.193	50.910	0.100			
0.638	51.000	1.174	51.310	0.400			
0.658	52.200	1.139	52.520	1.210			
0.668	52.600	1.122	52.920	0.400			
0.678	52.800	1.105	53.120	0.200			
0.688	53.800	1.089	54.120	1.010			
0.728	54.400	1.029	54.730	0.600			
0.738	54.600	1.015	54.930	0.200			
0.748	55.200	1.002	55.530	0.600			
0.758	55.400	0.989	55.730	0.200			
0.768	55.800	0.976	56.140	0.400			
0.778	57.200	0.963	57.550	1.410			
0.788	57.600	0.951	57.950	0.400			
0.808	57.800	0.927	58.150	0.200			
0.818	58.600	0.916	58.950	0.800			
0.838	59.000	0.894	59.360	0.400			
0.848	61.000	0.884	61.370	2.010			
0.878	61.600	0.854	61.970	0.600			
0.888	62.000	0.844	62.370	0.400			
0.918	62.800	0.816	63.180	0.800			
0.928	63.600	0.808	63.980	0.800			
0.938	65.200	0.799	65.590	1.610			
0.948	65.600	0.791	66.000	0.400			
0.978	66.300	0.766	66.700	0.700			
0.988	67.100	0.759	67.510	0.800			
1.018	68.100	0.736	68.510	1.010			
1.028	68.500	0.729	68.910	0.400			
1.048	69.300	0.715	69.720	0.800			
1.058	69.700	0.708	70.120	0.400			
1.068	71.500	0.702	71.930	1.810			
1.078	71.700	0.695	72.130	0.200			
1.098	72.300	0.683	72.740	0.600			
1.108	72.700	0.676	73.140	0.400			
1.118	73.100	0.670	73.540	0.400			
1.127	75.300	0.665	75.750	2.210			
1.147	75.500	0.653	75.960	0.200			
1.167	76.300	0.642	76.760	0.800			
1.177	76.700	0.636	77.160	0.400			
1.187	77.100	0.631	77.570	0.400			
1.197	77.300	0.626	77.770	0.200			
1.207	78.900	0.621	79.380	1.610			
1.227	79.700	0.610	80.180	0.800			
1.267	80.500	0.591	80.990	0.800			
1.277	81.900	0.587	82.390	1.410			
1.307	82.700	0.573	83.200	0.800			
1.317	83.300	0.569	83.800	0.600			
1.337	85.700	0.560	86.220	2.410			
1.377	86.900	0.544	87.420	1.210			
1.387	87.300	0.540	87.830	0.400			
1.437	89.100	0.521	89.640	1.810			
1.447	89.900	0.518	90.440	0.800			
1.457	90.100	0.514	90.640	0.200			
1.467	92.100	0.511	92.660	2.010			
1.517	93.500	0.494	94.060	1.410			
1.527	93.900	0.491	94.470	0.400			
1.537	94.300	0.487	94.870	0.400			
1.567	96.700	0.478	97.280	2.410			
1.597	97.500	0.469	98.090	0.800			
1.627	98.300	0.460	98.890	0.800			
1.637	98.700	0.458	99.300	0.400			
1.647	100.500	0.455	101.110	1.810			
1.667	101.100	0.449	101.710	0.600			
1.707	102.100	0.439	102.720	1.010			
1.737	103.700	0.431	104.330	1.610			
1.777	104.300	0.422	104.930	0.600			
1.787	105.300	0.419	105.940	1.010			
1.807	105.600	0.415	106.240	0.300			
1.857	108.600	0.403	109.260	3.020			
1.877	109.000	0.399	109.660	0.400			
1.897	109.600	0.395	110.260	0.600			
1.907	109.800	0.393	110.460	0.200			
1.917	110.000	0.391	110.660	0.200			
1.927	111.600	0.389	112.270	1.610			
1.957	112.000	0.383	112.680	0.400			
2.007	113.000	0.373	113.680	1.010			
2.047	114.600	0.366	115.290	1.610			
2.087	115.000	0.359	115.690	0.400			
2.117	116.200	0.354	116.900	1.210			
2.147	116.600	0.349	117.300	0.400			
2.157	117.000	0.347	117.710	0.400			
2.177	119.600	0.344	120.320	2.620			
2.187	119.800	0.343	120.520	0.200			
2.247	120.800	0.333	121.530	1.010			
2.257	121.000	0.332	121.730	0.200			
2.277	121.200	0.329	121.930	0.200			
2.287	123.200	0.328	123.940	2.010			
2.357	123.800	0.318	124.550	0.600			
2.377	124.400	0.315	125.150	0.600			
2.446	125.600	0.306	126.360	1.210			
2.466	126.000	0.304	126.760	0.400			
2.486	126.400	0.301	127.160	0.400			
2.506	128.600	0.299	129.380	2.210			
2.566	129.400	0.292	130.180	0.800			
2.596	129.600	0.289	130.380	0.200			
2.626	130.000	0.285	130.780	0.400			
2.666	131.900	0.281	132.700	1.910			
2.696	132.700	0.278	133.500	0.800			
2.766	133.100	0.271	133.900	0.400			
2.816	134.100	0.266	134.910	1.010			
2.846	134.500	0.263	135.310	0.400			
2.856	134.700	0.262	135.510	0.200			
2.886	136.500	0.260	137.320	1.810			
2.906	136.900	0.258	137.730	0.400			
2.986	137.500	0.251	138.330	0.600			
2.996	137.700	0.250	138.530	0.200			
